# 0-dist(Ang),1-dGtot,2-dGvac,3-dGele,4-dGdis,5-dGcav,6-dGvdw(kT)
13.5000 0.0000 0.0000 0.0000 0.0000 0.0000 0.0000
13.4000 0.0115 0.0000 -0.0007 -0.0006 0.0128 0.0122
13.3000 0.0073 0.0000 0.0006 -0.0022 0.0088 0.0066
13.2000 0.0226 0.0000 0.0009 -0.0027 0.0244 0.0217
13.1000 0.0325 0.0000 0.0017 -0.0026 0.0333 0.0307
13.0000 0.0428 0.0000 0.0017 -0.0022 0.0433 0.0411
12.9000 0.0514 0.0000 0.0017 -0.0020 0.0517 0.0497
12.8000 0.0600 0.0000 0.0015 -0.0025 0.0609 0.0585
12.7000 0.0666 -0.0000 0.0018 -0.0010 0.0659 0.0649
12.6000 0.0782 0.0002 0.0014 -0.0009 0.0775 0.0766
12.5000 0.0779 0.0008 0.0018 -0.0019 0.0772 0.0753
12.4000 0.0810 0.0017 0.0019 -0.0010 0.0784 0.0774
12.3000 0.1028 0.0023 0.0023 -0.0008 0.0991 0.0983
12.2000 0.1015 0.0029 0.0025 -0.0009 0.0971 0.0962
12.1000 0.1129 0.0031 0.0025 0.0008 0.1067 0.1075
12.0000 0.1127 0.0027 0.0020 0.0015 0.1067 0.1081
11.9000 0.1208 0.0027 0.0026 0.0032 0.1125 0.1157
11.8000 0.1312 0.0027 0.0027 0.0048 0.1212 0.1260
11.7000 0.1392 0.0026 0.0025 0.0049 0.1294 0.1343
11.6000 0.1488 0.0026 0.0023 0.0054 0.1386 0.1440
11.5000 0.1516 0.0026 0.0024 0.0055 0.1412 0.1467
11.4000 0.1592 0.0026 0.0033 0.0063 0.1472 0.1535
11.3000 0.1519 0.0026 0.0034 0.0074 0.1387 0.1461
11.2000 0.1522 0.0026 0.0027 0.0073 0.1398 0.1471
11.1000 0.1422 0.0025 0.0023 0.0067 0.1308 0.1375
11.0000 0.1282 0.0025 0.0028 0.0065 0.1165 0.1230
10.9000 0.1188 0.0025 0.0033 0.0063 0.1068 0.1131
10.8000 0.1029 0.0020 0.0027 0.0056 0.0927 0.0983
10.7000 0.0971 0.0011 0.0026 0.0048 0.0887 0.0934
10.6000 0.0757 -0.0004 0.0027 0.0035 0.0700 0.0735
10.5000 0.0428 -0.0026 0.0026 0.0022 0.0406 0.0428
10.4000 0.0067 -0.0057 0.0027 0.0002 0.0095 0.0097
10.3000 -0.0263 -0.0076 0.0025 -0.0018 -0.0193 -0.0211
10.2000 -0.0471 -0.0087 0.0024 -0.0027 -0.0381 -0.0408
10.1000 -0.0668 -0.0092 0.0028 -0.0043 -0.0562 -0.0605
10.0000 -0.0657 -0.0098 0.0023 -0.0055 -0.0527 -0.0582
9.9000 -0.0629 -0.0102 0.0016 -0.0055 -0.0487 -0.0542
9.8000 -0.0603 -0.0106 0.0017 -0.0050 -0.0463 -0.0513
9.7000 -0.0506 -0.0111 0.0018 -0.0047 -0.0366 -0.0413
9.6000 -0.0397 -0.0116 0.0019 -0.0041 -0.0259 -0.0300
9.5000 -0.0195 -0.0121 0.0023 -0.0015 -0.0081 -0.0095
9.4000 0.0212 -0.0126 0.0022 0.0012 0.0304 0.0316
9.3000 0.0611 -0.0132 0.0024 0.0053 0.0666 0.0720
9.2000 0.0991 -0.0138 0.0026 0.0095 0.1010 0.1105
9.1000 0.1531 -0.0145 0.0022 0.0140 0.1515 0.1655
9.0000 0.1954 -0.0152 0.0022 0.0184 0.1900 0.2084
8.9000 0.2548 -0.0162 0.0026 0.0230 0.2455 0.2685
8.8000 0.3051 -0.0165 0.0029 0.0285 0.2902 0.3187
8.7000 0.3542 -0.0166 0.0037 0.0325 0.3346 0.3671
8.6000 0.3919 -0.0163 0.0038 0.0378 0.3667 0.4045
8.5000 0.4033 -0.0164 0.0036 0.0421 0.3739 0.4161
8.4000 0.4066 -0.0166 0.0034 0.0454 0.3744 0.4198
8.3000 0.3965 -0.0171 0.0029 0.0484 0.3624 0.4108
8.2000 0.3687 -0.0180 0.0027 0.0509 0.3332 0.3841
8.1000 0.3397 -0.0194 0.0025 0.0521 0.3045 0.3566
8.0000 0.3074 -0.0208 0.0024 0.0538 0.2720 0.3258
7.9000 0.2640 -0.0224 0.0016 0.0553 0.2294 0.2847
7.8000 0.2023 -0.0241 0.0007 0.0557 0.1699 0.2256
7.7000 0.1638 -0.0259 0.0004 0.0554 0.1337 0.1891
7.6000 0.1085 -0.0279 0.0003 0.0544 0.0814 0.1358
7.5000 0.0567 -0.0300 0.0003 0.0542 0.0319 0.0861
7.4000 -0.0017 -0.0324 -0.0002 0.0532 -0.0227 0.0305
7.3000 -0.0590 -0.0350 -0.0005 0.0516 -0.0755 -0.0240
7.2000 -0.1128 -0.0378 -0.0009 0.0509 -0.1254 -0.0745
7.1000 -0.1747 -0.0409 -0.0013 0.0502 -0.1832 -0.1330
7.0000 -0.2238 -0.0443 -0.0019 0.0503 -0.2284 -0.1781
6.9000 -0.2696 -0.0480 -0.0022 0.0498 -0.2697 -0.2199
6.8000 -0.2864 -0.0521 -0.0020 0.0528 -0.2856 -0.2327
6.7000 -0.3042 -0.0566 -0.0022 0.0564 -0.3023 -0.2459
6.6000 -0.2980 -0.0616 -0.0024 0.0612 -0.2956 -0.2344
6.5000 -0.2704 -0.0671 -0.0021 0.0686 -0.2702 -0.2017
6.4000 -0.2306 -0.0732 -0.0020 0.0758 -0.2317 -0.1560
6.3000 -0.1689 -0.0800 -0.0011 0.0851 -0.1736 -0.0884
6.2000 -0.0802 -0.0875 -0.0013 0.0968 -0.0889 0.0078
6.1000 0.0163 -0.0958 -0.0015 0.1095 0.0035 0.1130
6.0000 0.1399 -0.1051 -0.0018 0.1243 0.1218 0.2461
5.9000 0.2560 -0.1154 -0.0025 0.1423 0.2309 0.3732
5.8000 0.3824 -0.1269 -0.0040 0.1605 0.3521 0.5126
5.7000 0.5115 -0.1397 -0.0045 0.1817 0.4733 0.6550
5.6000 0.6027 -0.1541 -0.0060 0.2064 0.5556 0.7620
5.5000 0.6708 -0.1702 -0.0071 0.2340 0.6133 0.8473
5.4000 0.7365 -0.1883 -0.0083 0.2641 0.6683 0.9324
5.3000 0.7783 -0.2085 -0.0089 0.2976 0.6973 0.9949
5.2000 0.8019 -0.2313 -0.0095 0.3338 0.7082 1.0419
5.1000 0.7891 -0.2569 -0.0099 0.3722 0.6829 1.0551
5.0000 0.7364 -0.2857 -0.0102 0.4144 0.6173 1.0316
4.9000 0.6936 -0.3180 -0.0105 0.4580 0.5634 1.0215
4.8000 0.6211 -0.3544 -0.0117 0.5037 0.4830 0.9867
4.7000 0.5267 -0.3953 -0.0128 0.5527 0.3816 0.9343
4.6000 0.4177 -0.4411 -0.0151 0.6039 0.2696 0.8735
4.5000 0.2815 -0.4923 -0.0181 0.6552 0.1362 0.7914
4.4000 0.1237 -0.5492 -0.0200 0.7111 -0.0189 0.6923
4.3000 -0.0332 -0.6121 -0.0220 0.7671 -0.1669 0.6002
4.2000 -0.2358 -0.6806 -0.0244 0.8246 -0.3561 0.4685
4.1000 -0.4469 -0.7543 -0.0274 0.8838 -0.5497 0.3341
4.0000 -0.6755 -0.8313 -0.0306 0.9440 -0.7583 0.1857
3.9000 -0.9197 -0.9086 -0.0339 1.0050 -0.9828 0.0221
3.8000 -1.1633 -0.9804 -0.0369 1.0670 -1.2136 -0.1467
3.7000 -1.4130 -1.0372 -0.0404 1.1291 -1.4652 -0.3360
3.6000 -1.6262 -1.0627 -0.0433 1.1935 -1.7143 -0.5208
3.5000 -1.8027 -1.0305 -0.0468 1.2576 -1.9835 -0.7259
3.4000 -1.8797 -0.8973 -0.0492 1.3215 -2.2552 -0.9337
3.3000 -1.7993 -0.5928 -0.0524 1.3853 -2.5400 -1.1547
3.2000 -1.4324 -0.0020 -0.0544 1.4505 -2.8270 -1.3766
3.1000 -0.5993 1.0631 -0.0573 1.5153 -3.1209 -1.6056
3.0000 1.0035 2.9118 -0.0582 1.5804 -3.4311 -1.8508
2.9000 3.9048 6.0579 -0.0595 1.6440 -3.7382 -2.0942
2.8000 8.9689 11.3617 -0.0600 1.7077 -4.0410 -2.3333
2.7000 17.6347 20.2802 -0.0604 1.7710 -4.3566 -2.5856
2.6000 32.4083 35.3103 -0.0606 1.8355 -4.6776 -2.8421
2.5000 57.6265 60.7876 -0.0597 1.9009 -5.0028 -3.1019
2.4000 100.9174 104.3471 -0.0593 1.9646 -5.3355 -3.3709
2.3000 175.9387 179.6395 -0.0583 2.0271 -5.6700 -3.6429
2.2000 307.4817 311.4678 -0.0573 2.0901 -6.0194 -3.9292
2.1000 541.4189 545.6814 -0.0558 2.1537 -6.3608 -4.2071
2.0000 964.0810 968.6318 -0.0553 2.2166 -6.7126 -4.4960
1.9000 1741.5189 1746.3525 -0.0545 2.2783 -7.0577 -4.7793
1.8000 3200.6725 3205.7924 -0.0543 2.3383 -7.4040 -5.0657
1.7000 6004.2794 6009.6837 -0.0534 2.3984 -7.7491 -5.3506
1.6000 11546.6401 11552.3252 -0.0530 2.4569 -8.0878 -5.6308
1.5000 22908.8992 22914.8650 -0.0532 2.5159 -8.4260 -5.9101
1.4000 47357.7468 47364.0111 -0.0532 2.5738 -8.7760 -6.2022
1.3000 103513.0452 103519.6061 -0.0536 2.6309 -9.1223 -6.4914
