# 0-dist(Ang),1-dGtot,2-dGvac,3-dGele,4-dGdis,5-dGcav,6-dGvdw(kT)
13.5000 0.0000 0.0000 0.0000 0.0000 0.0000 0.0000
13.4000 0.0130 -0.0004 0.0028 0.0069 0.0037 0.0106
13.3000 0.0140 -0.0019 0.0066 0.0137 -0.0045 0.0092
13.2000 0.0225 -0.0043 0.0124 0.0196 -0.0053 0.0143
13.1000 0.0258 -0.0080 0.0167 0.0258 -0.0088 0.0170
13.0000 0.0306 -0.0131 0.0223 0.0325 -0.0111 0.0214
12.9000 0.0255 -0.0200 0.0253 0.0377 -0.0174 0.0202
12.8000 0.0104 -0.0287 0.0282 0.0459 -0.0350 0.0109
12.7000 -0.0050 -0.0380 0.0312 0.0528 -0.0510 0.0018
12.6000 -0.0105 -0.0441 0.0336 0.0599 -0.0600 -0.0001
12.5000 -0.0173 -0.0487 0.0354 0.0667 -0.0706 -0.0039
12.4000 -0.0266 -0.0530 0.0367 0.0728 -0.0831 -0.0103
12.3000 -0.0381 -0.0579 0.0384 0.0782 -0.0967 -0.0185
12.2000 -0.0444 -0.0612 0.0379 0.0859 -0.1071 -0.0212
12.1000 -0.0541 -0.0640 0.0379 0.0920 -0.1200 -0.0281
12.0000 -0.0675 -0.0653 0.0385 0.0987 -0.1394 -0.0407
11.9000 -0.0815 -0.0670 0.0387 0.1046 -0.1578 -0.0532
11.8000 -0.0999 -0.0682 0.0375 0.1115 -0.1807 -0.0692
11.7000 -0.1122 -0.0685 0.0369 0.1166 -0.1972 -0.0806
11.6000 -0.1196 -0.0690 0.0361 0.1210 -0.2077 -0.0868
11.5000 -0.1310 -0.0680 0.0357 0.1255 -0.2242 -0.0988
11.4000 -0.1356 -0.0668 0.0357 0.1296 -0.2341 -0.1045
11.3000 -0.1356 -0.0657 0.0344 0.1340 -0.2384 -0.1044
11.2000 -0.1426 -0.0652 0.0338 0.1377 -0.2489 -0.1112
11.1000 -0.1443 -0.0656 0.0345 0.1403 -0.2536 -0.1133
11.0000 -0.1444 -0.0669 0.0373 0.1428 -0.2577 -0.1149
10.9000 -0.1472 -0.0700 0.0401 0.1470 -0.2645 -0.1175
10.8000 -0.1390 -0.0740 0.0445 0.1499 -0.2595 -0.1096
10.7000 -0.1254 -0.0763 0.0505 0.1530 -0.2527 -0.0997
10.6000 -0.1104 -0.0790 0.0585 0.1564 -0.2465 -0.0900
10.5000 -0.0818 -0.0811 0.0665 0.1606 -0.2278 -0.0672
10.4000 -0.0453 -0.0832 0.0749 0.1651 -0.2023 -0.0372
10.3000 -0.0052 -0.0853 0.0829 0.1718 -0.1747 -0.0030
10.2000 0.0474 -0.0881 0.0907 0.1790 -0.1344 0.0446
10.1000 0.1055 -0.0910 0.0968 0.1862 -0.0866 0.0996
10.0000 0.1643 -0.0939 0.1010 0.1975 -0.0404 0.1571
9.9000 0.2201 -0.0973 0.1033 0.2115 0.0025 0.2140
9.8000 0.2753 -0.1012 0.1032 0.2253 0.0479 0.2732
9.7000 0.3170 -0.1053 0.1007 0.2422 0.0793 0.3215
9.6000 0.3465 -0.1099 0.0967 0.2604 0.0992 0.3596
9.5000 0.3543 -0.1148 0.0911 0.2813 0.0966 0.3779
9.4000 0.3484 -0.1206 0.0852 0.3020 0.0817 0.3837
9.3000 0.3147 -0.1273 0.0800 0.3268 0.0351 0.3619
9.2000 0.2788 -0.1347 0.0754 0.3478 -0.0097 0.3381
9.1000 0.2179 -0.1429 0.0704 0.3695 -0.0790 0.2905
9.0000 0.1540 -0.1519 0.0665 0.3885 -0.1491 0.2394
8.9000 0.0741 -0.1617 0.0638 0.4068 -0.2349 0.1718
8.8000 -0.0086 -0.1723 0.0624 0.4224 -0.3212 0.1012
8.7000 -0.1044 -0.1839 0.0610 0.4346 -0.4162 0.0184
8.6000 -0.2024 -0.1965 0.0615 0.4452 -0.5125 -0.0673
8.5000 -0.3116 -0.2102 0.0634 0.4537 -0.6183 -0.1646
8.4000 -0.4156 -0.2252 0.0655 0.4579 -0.7138 -0.2559
8.3000 -0.5221 -0.2414 0.0677 0.4600 -0.8083 -0.3483
8.2000 -0.6274 -0.2590 0.0721 0.4600 -0.9004 -0.4404
8.1000 -0.7214 -0.2782 0.0751 0.4573 -0.9756 -0.5182
8.0000 -0.8102 -0.2991 0.0784 0.4553 -1.0448 -0.5894
7.9000 -0.8852 -0.3219 0.0818 0.4535 -1.0983 -0.6449
7.8000 -0.9363 -0.3468 0.0853 0.4532 -1.1280 -0.6748
7.7000 -0.9571 -0.3741 0.0892 0.4557 -1.1279 -0.6722
7.6000 -0.9269 -0.4039 0.0936 0.4603 -1.0769 -0.6166
7.5000 -0.8453 -0.4365 0.0996 0.4696 -0.9780 -0.5084
7.4000 -0.6918 -0.4723 0.1044 0.4822 -0.8062 -0.3240
7.3000 -0.4513 -0.5116 0.1112 0.4985 -0.5495 -0.0510
7.2000 -0.1204 -0.5549 0.1180 0.5221 -0.2058 0.3163
7.1000 0.3176 -0.6024 0.1224 0.5495 0.2480 0.7975
7.0000 0.8469 -0.6547 0.1282 0.5850 0.7883 1.3733
6.9000 1.4040 -0.7125 0.1321 0.6350 1.3492 1.9843
6.8000 1.8345 -0.7762 0.1319 0.7080 1.7707 2.4786
6.7000 2.1238 -0.8466 0.1304 0.7983 2.0415 2.8398
6.6000 2.2261 -0.9245 0.1292 0.9055 2.1158 3.0213
6.5000 2.2524 -1.0107 0.1298 1.0230 2.1101 3.1331
6.4000 2.2254 -1.1062 0.1308 1.1485 2.0522 3.2007
6.3000 2.1578 -1.2121 0.1325 1.2786 1.9587 3.2373
6.2000 2.0460 -1.3296 0.1367 1.4153 1.8234 3.2387
6.1000 1.9109 -1.4599 0.1411 1.5582 1.6714 3.2295
6.0000 1.7416 -1.6046 0.1469 1.7055 1.4936 3.1991
5.9000 1.5363 -1.7652 0.1534 1.8604 1.2875 3.1479
5.8000 1.3062 -1.9434 0.1600 2.0182 1.0712 3.0895
5.7000 1.0393 -2.1407 0.1651 2.1812 0.8335 3.0148
5.6000 0.7367 -2.3590 0.1709 2.3478 0.5769 2.9247
5.5000 0.3938 -2.5997 0.1759 2.5185 0.2990 2.8175
5.4000 0.0235 -2.8641 0.1791 2.6923 0.0161 2.7084
5.3000 -0.3885 -3.1527 0.1807 2.8707 -0.2873 2.5833
5.2000 -0.8255 -3.4651 0.1810 3.0509 -0.5926 2.4583
5.1000 -1.2981 -3.7989 0.1796 3.2356 -0.9148 2.3209
5.0000 -1.7983 -4.1488 0.1766 3.4232 -1.2497 2.1735
4.9000 -2.3099 -4.5047 0.1717 3.6134 -1.5907 2.0227
4.8000 -2.8215 -4.8490 0.1657 3.8074 -1.9458 1.8616
4.7000 -3.2874 -5.1524 0.1578 4.0019 -2.2951 1.7069
4.6000 -3.6815 -5.3667 0.1477 4.2001 -2.6629 1.5373
4.5000 -3.9175 -5.4143 0.1361 4.3998 -3.0393 1.3605
4.4000 -3.8625 -5.1704 0.1233 4.6006 -3.4163 1.1843
4.3000 -3.3234 -4.4343 0.1090 4.8041 -3.8024 1.0017
4.2000 -1.9775 -2.8827 0.0947 5.0091 -4.1989 0.8102
4.1000 0.6974 0.0102 0.0804 5.2161 -4.6096 0.6065
4.0000 5.5641 5.1067 0.0647 5.4232 -5.0309 0.3923
3.9000 14.0634 13.8395 0.0495 5.6307 -5.4568 0.1739
3.8000 28.6157 28.6246 0.0342 5.8378 -5.8815 -0.0436
3.7000 53.3494 53.6063 0.0176 6.0461 -6.3212 -0.2751
3.6000 95.5203 96.0337 0.0015 6.2546 -6.7701 -0.5154
3.5000 168.0890 168.8688 -0.0146 6.4616 -7.2272 -0.7656
3.4000 294.8058 295.8610 -0.0293 6.6672 -7.6936 -1.0264
3.3000 520.3960 521.7265 -0.0413 6.8720 -8.1618 -1.2899
3.2000 931.6351 933.2517 -0.0511 7.0744 -8.6408 -1.5664
3.1000 1702.7199 1704.6278 -0.0597 7.2744 -9.1242 -1.8499
3.0000 3196.6189 3198.8262 -0.0653 7.4717 -9.6155 -2.1438
2.9000 6201.8872 6204.4012 -0.0685 7.6655 -10.1154 -2.4499
2.8000 12513.1550 12515.9747 -0.0677 7.8556 -10.6193 -2.7637
2.7000 26431.0690 26434.2056 -0.0645 8.0398 -11.1276 -3.0877
2.6000 58864.0293 58867.4621 -0.0570 8.2186 -11.6440 -3.4253
2.5000 139230.2276 139233.9645 -0.0455 8.3892 -12.1657 -3.7764
2.4000 352088.9339 352092.9267 -0.0311 8.5530 -12.6875 -4.1345
2.3000 956014.8496 956018.3752 -0.0150 8.7084 -13.2189 -4.5106
2.2000 2783828.7479 2783831.6761 0.0042 8.8552 -13.7558 -4.9006
2.1000 8592837.2372 8592833.5387 0.0246 8.9899 -14.3053 -5.3154
2.0000 27321620.8217 27321602.6726 0.0465 9.1150 -14.8651 -5.7501
1.9000 84878910.5782 84878819.2683 0.0692 9.2290 -15.4339 -6.2049
1.8000 238166706.0980 238166563.6660 0.0911 9.3312 -16.0047 -6.6735
1.7000 557472937.7482 557472700.6058 0.1125 9.4237 -16.5880 -7.1642
1.6000 1130627252.1488 1130626285.2336 0.1309 9.5069 -17.1741 -7.6671
1.5000 3224493792.4409 3224490865.8420 0.1465 9.5807 -17.7509 -8.1702
1.4000 23996027448.5331 23996014311.9395 0.1587 9.6474 -18.3250 -8.6776
1.3000 399486692964.2248 399486089424.3063 0.1667 9.7073 -18.8678 -9.1605
