# 0-dist(Ang),1-dGtot,2-dGvac,3-dGele,4-dGdis,5-dGcav,6-dGvdw(kT)
13.5000 0.0000 0.0000 0.0000 0.0000 0.0000 0.0000
13.4000 0.0105 -0.0008 0.0024 0.0097 -0.0008 0.0089
13.3000 0.0414 -0.0018 0.0056 0.0180 0.0195 0.0375
13.2000 0.0600 -0.0028 0.0081 0.0278 0.0268 0.0546
13.1000 0.0709 -0.0045 0.0098 0.0363 0.0291 0.0655
13.0000 0.0816 -0.0068 0.0101 0.0462 0.0321 0.0782
12.9000 0.0962 -0.0096 0.0124 0.0567 0.0365 0.0933
12.8000 0.0983 -0.0126 0.0138 0.0686 0.0285 0.0971
12.7000 0.1007 -0.0163 0.0152 0.0803 0.0214 0.1018
12.6000 0.1021 -0.0199 0.0167 0.0936 0.0116 0.1052
12.5000 0.0842 -0.0237 0.0171 0.1057 -0.0149 0.0908
12.4000 0.0660 -0.0265 0.0167 0.1178 -0.0420 0.0757
12.3000 0.0589 -0.0300 0.0168 0.1285 -0.0564 0.0721
12.2000 0.0570 -0.0336 0.0178 0.1404 -0.0677 0.0727
12.1000 0.0274 -0.0376 0.0195 0.1513 -0.1060 0.0453
12.0000 0.0035 -0.0389 0.0208 0.1616 -0.1401 0.0215
11.9000 -0.0320 -0.0393 0.0192 0.1723 -0.1844 -0.0120
11.8000 -0.0856 -0.0410 0.0180 0.1835 -0.2462 -0.0628
11.7000 -0.1255 -0.0421 0.0173 0.1948 -0.2955 -0.1007
11.6000 -0.1667 -0.0419 0.0168 0.2050 -0.3466 -0.1416
11.5000 -0.2130 -0.0412 0.0173 0.2149 -0.4040 -0.1891
11.4000 -0.2630 -0.0391 0.0181 0.2227 -0.4648 -0.2421
11.3000 -0.3006 -0.0374 0.0206 0.2305 -0.5143 -0.2838
11.2000 -0.3373 -0.0369 0.0225 0.2386 -0.5616 -0.3229
11.1000 -0.3554 -0.0360 0.0260 0.2436 -0.5891 -0.3455
11.0000 -0.3893 -0.0364 0.0308 0.2492 -0.6328 -0.3837
10.9000 -0.4113 -0.0378 0.0362 0.2544 -0.6641 -0.4096
10.8000 -0.4414 -0.0407 0.0422 0.2599 -0.7027 -0.4427
10.7000 -0.4447 -0.0446 0.0500 0.2631 -0.7132 -0.4501
10.6000 -0.4469 -0.0487 0.0570 0.2676 -0.7228 -0.4552
10.5000 -0.4404 -0.0528 0.0649 0.2704 -0.7228 -0.4524
10.4000 -0.4073 -0.0571 0.0742 0.2719 -0.6962 -0.4244
10.3000 -0.3520 -0.0616 0.0827 0.2726 -0.6456 -0.3731
10.2000 -0.2748 -0.0655 0.0899 0.2765 -0.5756 -0.2992
10.1000 -0.1708 -0.0697 0.0964 0.2796 -0.4770 -0.1974
10.0000 -0.0584 -0.0736 0.1005 0.2858 -0.3711 -0.0853
9.9000 0.0667 -0.0775 0.1028 0.2931 -0.2515 0.0415
9.8000 0.1937 -0.0815 0.1023 0.3026 -0.1297 0.1729
9.7000 0.3144 -0.0854 0.1000 0.3167 -0.0168 0.2999
9.6000 0.4271 -0.0897 0.0960 0.3354 0.0855 0.4209
9.5000 0.5180 -0.0944 0.0899 0.3580 0.1646 0.5226
9.4000 0.6074 -0.0996 0.0828 0.3824 0.2419 0.6243
9.3000 0.6712 -0.1052 0.0760 0.4077 0.2927 0.7004
9.2000 0.6909 -0.1113 0.0698 0.4364 0.2961 0.7325
9.1000 0.7009 -0.1180 0.0640 0.4669 0.2881 0.7550
9.0000 0.6738 -0.1254 0.0578 0.5013 0.2401 0.7414
8.9000 0.6190 -0.1335 0.0535 0.5316 0.1674 0.6989
8.8000 0.5500 -0.1423 0.0485 0.5618 0.0819 0.6437
8.7000 0.4444 -0.1518 0.0465 0.5947 -0.0450 0.5497
8.6000 0.3290 -0.1620 0.0453 0.6250 -0.1792 0.4458
8.5000 0.2188 -0.1731 0.0465 0.6520 -0.3065 0.3455
8.4000 0.0961 -0.1851 0.0477 0.6750 -0.4414 0.2336
8.3000 -0.0402 -0.1981 0.0489 0.6963 -0.5873 0.1090
8.2000 -0.1908 -0.2122 0.0516 0.7172 -0.7473 -0.0301
8.1000 -0.3326 -0.2275 0.0554 0.7351 -0.8956 -0.1605
8.0000 -0.4954 -0.2441 0.0591 0.7498 -1.0601 -0.3103
7.9000 -0.6410 -0.2621 0.0629 0.7630 -1.2046 -0.4416
7.8000 -0.7730 -0.2816 0.0689 0.7745 -1.3345 -0.5600
7.7000 -0.8953 -0.3029 0.0744 0.7863 -1.4529 -0.6666
7.6000 -0.9711 -0.3261 0.0786 0.7934 -1.5169 -0.7234
7.5000 -1.0199 -0.3514 0.0836 0.8010 -1.5529 -0.7519
7.4000 -0.9987 -0.3790 0.0895 0.8107 -1.5197 -0.7090
7.3000 -0.8870 -0.4091 0.0936 0.8216 -1.3928 -0.5712
7.2000 -0.6957 -0.4420 0.0989 0.8348 -1.1871 -0.3522
7.1000 -0.4292 -0.4781 0.1038 0.8548 -0.9093 -0.0545
7.0000 -0.0883 -0.5175 0.1111 0.8785 -0.5600 0.3185
6.9000 0.3258 -0.5609 0.1213 0.9104 -0.1446 0.7658
6.8000 0.6744 -0.6084 0.1298 0.9562 0.1973 1.1535
6.7000 0.9467 -0.6607 0.1388 1.0131 0.4557 1.4689
6.6000 1.1377 -0.7182 0.1483 1.0811 0.6267 1.7079
6.5000 1.2387 -0.7815 0.1554 1.1609 0.7043 1.8652
6.4000 1.3328 -0.8514 0.1618 1.2474 0.7753 2.0227
6.3000 1.3838 -0.9284 0.1664 1.3415 0.8046 2.1462
6.2000 1.4232 -1.0135 0.1686 1.4493 0.8193 2.2685
6.1000 1.4518 -1.1076 0.1687 1.5652 0.8258 2.3910
6.0000 1.4694 -1.2115 0.1668 1.6889 0.8255 2.5144
5.9000 1.4681 -1.3265 0.1622 1.8170 0.8158 2.6329
5.8000 1.4417 -1.4537 0.1562 1.9586 0.7811 2.7397
5.7000 1.3893 -1.5943 0.1472 2.1078 0.7290 2.8368
5.6000 1.3123 -1.7495 0.1370 2.2665 0.6588 2.9254
5.5000 1.1604 -1.9206 0.1250 2.4357 0.5208 2.9565
5.4000 0.9922 -2.1085 0.1124 2.6086 0.3804 2.9890
5.3000 0.7766 -2.3138 0.0984 2.7910 0.2017 2.9927
5.2000 0.5144 -2.5367 0.0859 2.9797 -0.0139 2.9658
5.1000 0.2195 -2.7759 0.0734 3.1741 -0.2514 2.9227
5.0000 -0.1112 -3.0282 0.0616 3.3755 -0.5194 2.8561
4.9000 -0.4792 -3.2871 0.0501 3.5820 -0.8237 2.7584
4.8000 -0.8705 -3.5404 0.0403 3.7916 -1.1616 2.6301
4.7000 -1.2445 -3.7671 0.0308 4.0040 -1.5117 2.4923
4.6000 -1.5651 -3.9307 0.0251 4.2211 -1.8800 2.3410
4.5000 -1.7945 -3.9698 0.0238 4.4428 -2.2909 2.1519
4.4000 -1.7938 -3.7802 0.0238 4.6672 -2.7042 1.9630
4.3000 -1.4134 -3.1840 0.0300 4.8929 -3.1521 1.7408
4.2000 -0.3314 -1.8752 0.0351 5.1200 -3.6110 1.5090
4.1000 1.9918 0.6821 0.0454 5.3484 -4.0838 1.2646
4.0000 6.5093 5.4451 0.0594 5.5784 -4.5733 1.0051
3.9000 14.9587 14.1658 0.0764 5.8099 -5.0931 0.7168
3.8000 30.6462 30.1442 0.0954 6.0404 -5.6334 0.4070
3.7000 60.0002 59.8047 0.1180 6.2716 -6.1937 0.0779
3.6000 116.0140 116.1321 0.1419 6.5000 -6.7596 -0.2595
3.5000 226.0387 226.5015 0.1673 6.7272 -7.3567 -0.6295
3.4000 450.6014 451.4173 0.1931 6.9518 -7.9601 -1.0083
3.3000 930.6248 931.8238 0.2191 7.1703 -8.5877 -1.4174
3.2000 2014.2383 2015.8298 0.2443 7.3849 -9.2197 -1.8348
3.1000 4619.1939 4621.1821 0.2703 7.5955 -9.8530 -2.2575
3.0000 11348.5042 11350.9165 0.2935 7.8019 -10.5061 -2.7042
2.9000 30222.3597 30225.2263 0.3150 8.0027 -11.1773 -3.1746
2.8000 88410.3336 88413.6782 0.3348 8.1975 -11.8698 -3.6723
2.7000 288683.1082 288686.9104 0.3531 8.3849 -12.5642 -4.1792
2.6000 1074055.8412 1074060.1831 0.3678 8.5622 -13.2709 -4.7087
2.5000 4680429.1666 4680434.8363 0.3786 8.7305 -13.9762 -5.2457
2.4000 24812346.8907 24812353.9176 0.3861 8.8908 -14.7005 -5.8097
2.3000 168732320.8062 168732339.6246 0.3896 9.0403 -15.4335 -6.3932
2.2000 1585162767.7407 1585163081.8141 0.3888 9.1791 -16.1659 -6.9868
2.1000 22707203335.6128 22707208262.4312 0.3837 9.3050 -16.8822 -7.5771
2.0000 546404246051.0132 546404351010.3615 0.3777 9.4203 -17.5944 -8.1740
1.9000 19619201385763.5195 19619203064994.9336 0.3670 9.5221 -18.2969 -8.7747
1.8000 293132509751221.3125 293132536618805.0000 0.3533 9.6158 -18.9862 -9.3704
1.7000 131907291091162.0000 131907317958745.6875 0.3377 9.6967 -19.6548 -9.9581
1.6000 4629427366101.3125 4629427785823.2188 0.3176 9.7640 -20.2872 -10.5231
1.5000 143456093173.3633 143456132447.2197 0.2951 9.8202 -20.8766 -11.0565
1.4000 7405809563.6602 7405810303.9715 0.2717 9.8673 -21.4250 -11.5576
1.3000 673073778.7930 673073757.3710 0.2482 9.9059 -21.9112 -12.0054
