# 0-dist(Ang),1-dGtot,2-dGvac,3-dGele,4-dGdis,5-dGcav,6-dGvdw(kT)
13.5000 0.0000 0.0000 0.0000 0.0000 0.0000 0.0000
13.4000 0.0030 0.0000 0.0034 -0.0003 -0.0000 -0.0003
13.3000 0.0114 0.0000 0.0069 -0.0006 0.0051 0.0044
13.2000 0.0142 0.0000 0.0106 -0.0002 0.0038 0.0036
13.1000 0.0181 0.0001 0.0138 0.0002 0.0040 0.0041
13.0000 0.0295 0.0003 0.0172 -0.0007 0.0128 0.0121
12.9000 0.0359 0.0003 0.0191 -0.0007 0.0172 0.0164
12.8000 0.0431 -0.0002 0.0214 -0.0005 0.0224 0.0219
12.7000 0.0450 -0.0005 0.0221 -0.0005 0.0239 0.0234
12.6000 0.0542 -0.0005 0.0223 0.0005 0.0319 0.0324
12.5000 0.0547 -0.0008 0.0221 0.0010 0.0324 0.0334
12.4000 0.0571 -0.0014 0.0220 0.0010 0.0355 0.0365
12.3000 0.0545 -0.0022 0.0222 0.0015 0.0330 0.0345
12.2000 0.0559 -0.0035 0.0218 0.0020 0.0357 0.0377
12.1000 0.0598 -0.0052 0.0214 0.0022 0.0414 0.0436
12.0000 0.0630 -0.0078 0.0207 0.0030 0.0470 0.0500
11.9000 0.0605 -0.0138 0.0207 0.0035 0.0501 0.0536
11.8000 0.0527 -0.0169 0.0194 0.0045 0.0459 0.0503
11.7000 0.0480 -0.0207 0.0180 0.0051 0.0456 0.0507
11.6000 0.0432 -0.0242 0.0171 0.0056 0.0447 0.0504
11.5000 0.0310 -0.0266 0.0154 0.0080 0.0343 0.0423
11.4000 0.0257 -0.0284 0.0138 0.0089 0.0315 0.0404
11.3000 0.0187 -0.0296 0.0120 0.0098 0.0266 0.0364
11.2000 0.0097 -0.0311 0.0105 0.0115 0.0189 0.0304
11.1000 0.0007 -0.0326 0.0087 0.0130 0.0117 0.0248
11.0000 -0.0064 -0.0346 0.0060 0.0137 0.0086 0.0222
10.9000 -0.0203 -0.0356 0.0043 0.0152 -0.0040 0.0112
10.8000 -0.0319 -0.0358 0.0020 0.0155 -0.0136 0.0019
10.7000 -0.0441 -0.0368 0.0006 0.0164 -0.0243 -0.0079
10.6000 -0.0532 -0.0369 -0.0011 0.0163 -0.0314 -0.0151
10.5000 -0.0634 -0.0373 -0.0024 0.0159 -0.0397 -0.0238
10.4000 -0.0750 -0.0378 -0.0020 0.0150 -0.0503 -0.0353
10.3000 -0.0824 -0.0389 -0.0016 0.0144 -0.0564 -0.0420
10.2000 -0.0886 -0.0395 -0.0010 0.0138 -0.0620 -0.0482
10.1000 -0.0936 -0.0400 0.0002 0.0132 -0.0672 -0.0540
10.0000 -0.0917 -0.0403 0.0025 0.0122 -0.0663 -0.0541
9.9000 -0.0898 -0.0407 0.0048 0.0109 -0.0650 -0.0541
9.8000 -0.0921 -0.0414 0.0076 0.0105 -0.0690 -0.0586
9.7000 -0.0800 -0.0423 0.0111 0.0096 -0.0586 -0.0490
9.6000 -0.0574 -0.0432 0.0134 0.0078 -0.0356 -0.0278
9.5000 -0.0331 -0.0442 0.0167 0.0071 -0.0129 -0.0058
9.4000 -0.0136 -0.0455 0.0196 0.0068 0.0053 0.0121
9.3000 0.0191 -0.0471 0.0221 0.0070 0.0369 0.0440
9.2000 0.0574 -0.0492 0.0247 0.0080 0.0736 0.0816
9.1000 0.1009 -0.0516 0.0270 0.0092 0.1161 0.1253
9.0000 0.1429 -0.0544 0.0275 0.0113 0.1583 0.1696
8.9000 0.1858 -0.0575 0.0276 0.0137 0.2018 0.2155
8.8000 0.2213 -0.0610 0.0256 0.0185 0.2381 0.2566
8.7000 0.2622 -0.0649 0.0233 0.0232 0.2804 0.3036
8.6000 0.2882 -0.0692 0.0212 0.0298 0.3062 0.3360
8.5000 0.3039 -0.0737 0.0183 0.0373 0.3219 0.3593
8.4000 0.3131 -0.0785 0.0146 0.0452 0.3317 0.3769
8.3000 0.3046 -0.0837 0.0101 0.0529 0.3251 0.3780
8.2000 0.2877 -0.0894 0.0045 0.0608 0.3116 0.3724
8.1000 0.2617 -0.0955 -0.0009 0.0698 0.2880 0.3578
8.0000 0.2209 -0.1021 -0.0064 0.0777 0.2514 0.3291
7.9000 0.1689 -0.1092 -0.0122 0.0836 0.2064 0.2900
7.8000 0.1041 -0.1169 -0.0167 0.0902 0.1471 0.2373
7.7000 0.0290 -0.1252 -0.0212 0.0959 0.0791 0.1750
7.6000 -0.0436 -0.1343 -0.0252 0.0992 0.0162 0.1154
7.5000 -0.1239 -0.1441 -0.0277 0.1006 -0.0531 0.0475
7.4000 -0.2089 -0.1548 -0.0292 0.1019 -0.1271 -0.0252
7.3000 -0.2939 -0.1664 -0.0298 0.1018 -0.1999 -0.0981
7.2000 -0.3896 -0.1791 -0.0300 0.1025 -0.2834 -0.1809
7.1000 -0.4710 -0.1928 -0.0295 0.1024 -0.3514 -0.2489
7.0000 -0.5495 -0.2078 -0.0277 0.1032 -0.4174 -0.3142
6.9000 -0.6107 -0.2242 -0.0268 0.1043 -0.4642 -0.3599
6.8000 -0.6490 -0.2422 -0.0259 0.1052 -0.4863 -0.3811
6.7000 -0.6610 -0.2618 -0.0261 0.1082 -0.4815 -0.3733
6.6000 -0.6239 -0.2832 -0.0260 0.1114 -0.4262 -0.3148
6.5000 -0.5343 -0.3068 -0.0264 0.1155 -0.3168 -0.2013
6.4000 -0.3814 -0.3326 -0.0268 0.1213 -0.1435 -0.0221
6.3000 -0.1750 -0.3610 -0.0270 0.1295 0.0834 0.2129
6.2000 0.0854 -0.3923 -0.0258 0.1411 0.3620 0.5031
6.1000 0.3468 -0.4267 -0.0232 0.1583 0.6382 0.7965
6.0000 0.5860 -0.4646 -0.0203 0.1809 0.8897 1.0706
5.9000 0.7867 -0.5065 -0.0165 0.2101 1.0993 1.3094
5.8000 0.9593 -0.5527 -0.0130 0.2452 1.2794 1.5246
5.7000 1.1156 -0.6038 -0.0108 0.2859 1.4441 1.7300
5.6000 1.2520 -0.6604 -0.0105 0.3332 1.5893 1.9225
5.5000 1.3569 -0.7231 -0.0112 0.3874 1.7033 2.0908
5.4000 1.4437 -0.7925 -0.0130 0.4468 1.8020 2.2488
5.3000 1.5025 -0.8696 -0.0157 0.5113 1.8761 2.3874
5.2000 1.5353 -0.9551 -0.0193 0.5811 1.9282 2.5093
5.1000 1.5235 -1.0499 -0.0219 0.6581 1.9370 2.5951
5.0000 1.4831 -1.1551 -0.0264 0.7400 1.9243 2.6643
4.9000 1.4078 -1.2716 -0.0309 0.8273 1.8828 2.7101
4.8000 1.2986 -1.4006 -0.0350 0.9197 1.8142 2.7339
4.7000 1.1490 -1.5430 -0.0405 1.0165 1.7157 2.7322
4.6000 0.9714 -1.6995 -0.0455 1.1172 1.5989 2.7161
4.5000 0.7657 -1.8709 -0.0512 1.2224 1.4650 2.6873
4.4000 0.5337 -2.0568 -0.0575 1.3309 1.3166 2.6475
4.3000 0.2661 -2.2561 -0.0626 1.4440 1.1405 2.5845
4.2000 -0.0241 -2.4661 -0.0682 1.5598 0.9499 2.5097
4.1000 -0.3309 -2.6810 -0.0744 1.6786 0.7455 2.4241
4.0000 -0.6459 -2.8909 -0.0802 1.8009 0.5238 2.3247
3.9000 -0.9493 -3.0785 -0.0866 1.9262 0.2890 2.2152
3.8000 -1.2112 -3.2151 -0.0927 2.0533 0.0428 2.0961
3.7000 -1.3847 -3.2536 -0.0980 2.1831 -0.2168 1.9663
3.6000 -1.3947 -3.1166 -0.1040 2.3155 -0.4901 1.8254
3.5000 -1.1108 -2.6777 -0.1095 2.4492 -0.7732 1.6760
3.4000 -0.3339 -1.7285 -0.1145 2.5853 -1.0766 1.5087
3.3000 1.2918 0.0770 -0.1200 2.7233 -1.3888 1.3345
3.2000 4.3457 3.3200 -0.1247 2.8617 -1.7116 1.1501
3.1000 9.8235 8.9906 -0.1295 3.0015 -2.0392 0.9622
3.0000 19.4297 18.8024 -0.1345 3.1420 -2.3802 0.7618
2.9000 36.1810 35.7762 -0.1378 3.2841 -2.7416 0.5424
2.8000 65.5181 65.3424 -0.1415 3.4266 -3.1096 0.3170
2.7000 117.4051 117.4707 -0.1465 3.5696 -3.4890 0.0806
2.6000 210.5557 210.8706 -0.1509 3.7116 -3.8760 -0.1644
2.5000 380.8669 381.4439 -0.1544 3.8534 -4.2767 -0.4232
2.4000 698.7745 699.6244 -0.1573 3.9952 -4.6887 -0.6935
2.3000 1305.4040 1306.5450 -0.1604 4.1356 -5.1178 -0.9822
2.2000 2488.9974 2490.4369 -0.1619 4.2750 -5.5543 -1.2792
2.1000 4847.4227 4849.1724 -0.1641 4.4128 -6.0037 -1.5909
2.0000 9633.3234 9635.3972 -0.1656 4.5478 -6.4620 -1.9142
1.9000 19475.3035 19477.6984 -0.1652 4.6812 -6.9346 -2.2534
1.8000 39827.6113 39830.3106 -0.1635 4.8107 -7.4141 -2.6034
1.7000 81667.0547 81670.0520 -0.1599 4.9361 -7.9025 -2.9663
1.6000 165779.2395 165782.6064 -0.1542 5.0574 -8.4020 -3.3446
1.5000 327418.4248 327421.8800 -0.1469 5.1741 -8.9089 -3.7348
1.4000 615333.9222 615337.4195 -0.1348 5.2854 -9.4254 -4.1400
1.3000 1071939.6036 1071943.3297 -0.1197 5.3913 -9.9513 -4.5600
