# 0-dist(Ang),1-dGtot,2-dGvac,3-dGele,4-dGdis,5-dGcav,6-dGvdw(kT)
13.5000 0.0000 0.0000 0.0000 0.0000 0.0000 0.0000
13.4000 0.0227 -0.0011 0.0028 0.0053 0.0158 0.0210
13.3000 0.0392 -0.0024 0.0051 0.0112 0.0253 0.0365
13.2000 0.0474 -0.0037 0.0075 0.0188 0.0248 0.0436
13.1000 0.0847 -0.0056 0.0103 0.0263 0.0537 0.0800
13.0000 0.1043 -0.0079 0.0123 0.0344 0.0654 0.0998
12.9000 0.1178 -0.0107 0.0145 0.0427 0.0713 0.1140
12.8000 0.1280 -0.0138 0.0170 0.0513 0.0735 0.1248
12.7000 0.1256 -0.0176 0.0204 0.0617 0.0611 0.1228
12.6000 0.1311 -0.0221 0.0232 0.0708 0.0592 0.1301
12.5000 0.1157 -0.0271 0.0245 0.0818 0.0366 0.1184
12.4000 0.1065 -0.0300 0.0275 0.0922 0.0169 0.1091
12.3000 0.1013 -0.0316 0.0288 0.1022 0.0018 0.1040
12.2000 0.0818 -0.0311 0.0317 0.1127 -0.0316 0.0811
12.1000 0.0578 -0.0313 0.0337 0.1252 -0.0698 0.0554
12.0000 0.0422 -0.0299 0.0355 0.1358 -0.0993 0.0365
11.9000 0.0255 -0.0294 0.0373 0.1456 -0.1280 0.0176
11.8000 -0.0225 -0.0282 0.0388 0.1554 -0.1885 -0.0331
11.7000 -0.0695 -0.0284 0.0406 0.1662 -0.2481 -0.0818
11.6000 -0.1123 -0.0287 0.0425 0.1758 -0.3020 -0.1262
11.5000 -0.1493 -0.0285 0.0437 0.1860 -0.3507 -0.1647
11.4000 -0.1933 -0.0283 0.0443 0.1948 -0.4044 -0.2096
11.3000 -0.2345 -0.0287 0.0471 0.2015 -0.4547 -0.2532
11.2000 -0.2913 -0.0292 0.0493 0.2092 -0.5209 -0.3117
11.1000 -0.3306 -0.0303 0.0527 0.2150 -0.5683 -0.3533
11.0000 -0.3655 -0.0317 0.0586 0.2211 -0.6138 -0.3927
10.9000 -0.3917 -0.0338 0.0635 0.2262 -0.6479 -0.4218
10.8000 -0.4173 -0.0361 0.0697 0.2306 -0.6817 -0.4511
10.7000 -0.4331 -0.0388 0.0765 0.2329 -0.7039 -0.4711
10.6000 -0.4451 -0.0414 0.0838 0.2345 -0.7224 -0.4879
10.5000 -0.4189 -0.0441 0.0907 0.2351 -0.7010 -0.4659
10.4000 -0.3657 -0.0468 0.0986 0.2358 -0.6536 -0.4178
10.3000 -0.2970 -0.0496 0.1045 0.2359 -0.5880 -0.3521
10.2000 -0.2160 -0.0526 0.1100 0.2402 -0.5138 -0.2736
10.1000 -0.0977 -0.0560 0.1135 0.2422 -0.3976 -0.1555
10.0000 0.0329 -0.0595 0.1162 0.2471 -0.2713 -0.0242
9.9000 0.1749 -0.0632 0.1145 0.2569 -0.1336 0.1234
9.8000 0.3488 -0.0673 0.1109 0.2669 0.0379 0.3049
9.7000 0.4936 -0.0717 0.1066 0.2809 0.1775 0.4584
9.6000 0.6347 -0.0764 0.1000 0.3009 0.3100 0.6109
9.5000 0.7188 -0.0815 0.0915 0.3264 0.3822 0.7085
9.4000 0.7622 -0.0871 0.0828 0.3560 0.4100 0.7661
9.3000 0.7735 -0.0930 0.0740 0.3883 0.4037 0.7920
9.2000 0.7636 -0.0994 0.0654 0.4213 0.3759 0.7971
9.1000 0.7054 -0.1063 0.0599 0.4572 0.2941 0.7513
9.0000 0.6419 -0.1137 0.0555 0.4941 0.2057 0.6998
8.9000 0.5579 -0.1217 0.0527 0.5267 0.0998 0.6266
8.8000 0.4281 -0.1304 0.0480 0.5644 -0.0542 0.5102
8.7000 0.2814 -0.1399 0.0485 0.5987 -0.2263 0.3724
8.6000 0.1316 -0.1500 0.0501 0.6291 -0.3980 0.2311
8.5000 -0.0409 -0.1611 0.0542 0.6592 -0.5936 0.0656
8.4000 -0.2028 -0.1731 0.0598 0.6869 -0.7768 -0.0898
8.3000 -0.3819 -0.1861 0.0670 0.7112 -0.9743 -0.2631
8.2000 -0.5633 -0.2003 0.0758 0.7317 -1.1710 -0.4393
8.1000 -0.7388 -0.2157 0.0852 0.7488 -1.3574 -0.6086
8.0000 -0.9200 -0.2325 0.0942 0.7648 -1.5469 -0.7821
7.9000 -1.0799 -0.2508 0.1037 0.7795 -1.7128 -0.9333
7.8000 -1.2166 -0.2708 0.1108 0.7918 -1.8487 -1.0570
7.7000 -1.3420 -0.2926 0.1190 0.8012 -1.9700 -1.1688
7.6000 -1.4283 -0.3165 0.1250 0.8120 -2.0491 -1.2371
7.5000 -1.4573 -0.3426 0.1305 0.8195 -2.0650 -1.2454
7.4000 -1.4293 -0.3713 0.1336 0.8279 -2.0199 -1.1920
7.3000 -1.2937 -0.4027 0.1355 0.8401 -1.8668 -1.0267
7.2000 -1.0391 -0.4372 0.1353 0.8564 -1.5937 -0.7372
7.1000 -0.6861 -0.4752 0.1336 0.8771 -1.2218 -0.3447
7.0000 -0.2370 -0.5169 0.1315 0.9063 -0.7579 0.1484
6.9000 0.2779 -0.5630 0.1309 0.9475 -0.2376 0.7099
6.8000 0.8360 -0.6137 0.1300 0.9996 0.3201 1.3197
6.7000 1.3177 -0.6698 0.1315 1.0671 0.7889 1.8560
6.6000 1.6710 -0.7318 0.1325 1.1545 1.1157 2.2703
6.5000 1.9037 -0.8003 0.1351 1.2529 1.3160 2.5689
6.4000 2.0203 -0.8762 0.1386 1.3646 1.3933 2.7579
6.3000 2.0829 -0.9604 0.1413 1.4871 1.4150 2.9021
6.2000 2.0914 -1.0538 0.1449 1.6190 1.3813 3.0003
6.1000 2.0438 -1.1574 0.1468 1.7610 1.2934 3.0544
6.0000 1.9546 -1.2725 0.1495 1.9158 1.1617 3.0776
5.9000 1.8379 -1.4003 0.1508 2.0778 1.0097 3.0875
5.8000 1.6657 -1.5422 0.1507 2.2532 0.8041 3.0573
5.7000 1.4720 -1.6997 0.1495 2.4360 0.5861 3.0221
5.6000 1.2409 -1.8743 0.1476 2.6259 0.3416 2.9674
5.5000 0.9781 -2.0675 0.1461 2.8219 0.0775 2.8994
5.4000 0.6486 -2.2805 0.1436 3.0291 -0.2437 2.7854
5.3000 0.2854 -2.5143 0.1394 3.2407 -0.5805 2.6602
5.2000 -0.1195 -2.7690 0.1358 3.4634 -0.9498 2.5136
5.1000 -0.5697 -3.0436 0.1310 3.6889 -1.3460 2.3429
5.0000 -1.0527 -3.3348 0.1246 3.9205 -1.7632 2.1573
4.9000 -1.5735 -3.6358 0.1195 4.1578 -2.2152 1.9426
4.8000 -2.1053 -3.9339 0.1121 4.4004 -2.6844 1.7160
4.7000 -2.6159 -4.2069 0.1062 4.6464 -3.1620 1.4845
4.6000 -3.0772 -4.4172 0.1000 4.8971 -3.6575 1.2396
4.5000 -3.4218 -4.5017 0.0946 5.1517 -4.1668 0.9850
4.4000 -3.5540 -4.3554 0.0899 5.4092 -4.6981 0.7111
4.3000 -3.3032 -3.8034 0.0867 5.6697 -5.2565 0.4132
4.2000 -2.3542 -2.5525 0.0846 5.9308 -5.8175 0.1133
4.1000 -0.2342 -0.1062 0.0864 6.1951 -6.4098 -0.2147
4.0000 3.9196 4.3877 0.0892 6.4611 -7.0185 -0.5575
3.9000 11.5856 12.4174 0.0925 6.7277 -7.6523 -0.9246
3.8000 25.4353 26.6344 0.1004 6.9939 -8.2937 -1.2998
3.7000 50.2959 51.8752 0.1090 7.2595 -8.9483 -1.6888
3.6000 95.2076 97.1981 0.1209 7.5247 -9.6365 -2.1118
3.5000 177.6873 180.0859 0.1328 7.7882 -10.3201 -2.5318
3.4000 332.5713 335.4241 0.1460 8.0502 -11.0494 -2.9991
3.3000 632.1201 635.4424 0.1607 8.3076 -11.7909 -3.4833
3.2000 1232.0579 1235.8688 0.1753 8.5630 -12.5494 -3.9864
3.1000 2483.2739 2487.5869 0.1914 8.8136 -13.3180 -4.5044
3.0000 5214.6634 5219.5159 0.2077 9.0604 -14.1207 -5.0603
2.9000 11485.0548 11490.4604 0.2259 9.3001 -14.9316 -5.6314
2.8000 26679.9576 26685.9371 0.2438 9.5322 -15.7555 -6.2232
2.7000 65636.6651 65643.2571 0.2620 9.7581 -16.5995 -6.8414
2.6000 171286.2004 171293.4111 0.2796 9.9758 -17.4531 -7.4773
2.5000 473093.0043 473100.8079 0.2980 10.1852 -18.3351 -8.1499
2.4000 1371598.7467 1371607.4838 0.3171 10.3830 -19.2341 -8.8511
2.3000 4100006.8571 4100016.1026 0.3367 10.5698 -20.1425 -9.5727
2.2000 12229234.0778 12229245.6387 0.3577 10.7489 -21.0532 -10.3043
2.1000 34475019.6395 34475030.3573 0.3776 10.9122 -21.9784 -11.0663
2.0000 84734810.2981 84734834.5872 0.4012 11.0616 -22.9007 -11.8392
1.9000 163913873.2602 163913885.5130 0.4243 11.1992 -23.8398 -12.6406
1.8000 226005692.3288 226005731.1575 0.4483 11.3236 -24.7704 -13.4468
1.7000 211581902.0094 211581942.2094 0.4722 11.4338 -25.7195 -14.2857
1.6000 145786838.0698 145786852.9483 0.4987 11.5299 -26.6456 -15.1157
1.5000 119073476.3645 119073503.8891 0.5253 11.6131 -27.5370 -15.9239
1.4000 247395652.8257 247395707.6636 0.5513 11.6835 -28.3927 -16.7091
1.3000 820780104.6792 820780148.4244 0.5751 11.7428 -29.2093 -17.4665
