# 0-dist(Ang),1-dGtot,2-dGvac,3-dGele,4-dGdis,5-dGcav,6-dGvdw(kT)
13.5000 0.0000 0.0000 0.0000 0.0000 0.0000 0.0000
13.4000 -0.0160 0.0000 0.0012 -0.0099 -0.0072 -0.0172
13.3000 -0.0086 0.0000 0.0099 -0.0189 0.0005 -0.0184
13.2000 -0.0146 0.0000 0.0123 -0.0281 0.0013 -0.0268
13.1000 -0.0094 0.0000 0.0128 -0.0371 0.0150 -0.0222
13.0000 -0.0098 -0.0004 0.0152 -0.0467 0.0220 -0.0247
12.9000 -0.0064 -0.0018 0.0156 -0.0558 0.0353 -0.0205
12.8000 -0.0106 -0.0035 0.0134 -0.0652 0.0445 -0.0207
12.7000 -0.0145 -0.0050 0.0176 -0.0718 0.0445 -0.0274
12.6000 0.0013 -0.0066 0.0214 -0.0811 0.0673 -0.0137
12.5000 0.0036 -0.0082 0.0237 -0.0907 0.0786 -0.0121
12.4000 0.0100 -0.0100 0.0290 -0.0989 0.0896 -0.0092
12.3000 0.0188 -0.0118 0.0363 -0.1065 0.1004 -0.0060
12.2000 0.0365 -0.0136 0.0420 -0.1161 0.1241 0.0080
12.1000 0.0447 -0.0155 0.0453 -0.1255 0.1399 0.0145
12.0000 0.0453 -0.0176 0.0502 -0.1331 0.1453 0.0122
11.9000 0.0394 -0.0214 0.0539 -0.1399 0.1462 0.0064
11.8000 0.0458 -0.0225 0.0596 -0.1466 0.1549 0.0082
11.7000 0.0485 -0.0243 0.0659 -0.1548 0.1613 0.0065
11.6000 0.0374 -0.0266 0.0708 -0.1618 0.1546 -0.0072
11.5000 0.0168 -0.0300 0.0792 -0.1727 0.1398 -0.0329
11.4000 0.0095 -0.0346 0.0908 -0.1829 0.1357 -0.0472
11.3000 0.0127 -0.0391 0.0933 -0.1923 0.1503 -0.0420
11.2000 0.0012 -0.0436 0.1001 -0.2013 0.1454 -0.0559
11.1000 -0.0075 -0.0467 0.1042 -0.2079 0.1424 -0.0655
11.0000 -0.0225 -0.0499 0.1094 -0.2159 0.1339 -0.0820
10.9000 -0.0428 -0.0526 0.1146 -0.2258 0.1209 -0.1048
10.8000 -0.0683 -0.0550 0.1165 -0.2342 0.1044 -0.1298
10.7000 -0.0847 -0.0576 0.1215 -0.2438 0.0950 -0.1487
10.6000 -0.1157 -0.0602 0.1214 -0.2524 0.0755 -0.1769
10.5000 -0.1386 -0.0632 0.1232 -0.2623 0.0632 -0.1990
10.4000 -0.1541 -0.0660 0.1304 -0.2745 0.0556 -0.2189
10.3000 -0.1961 -0.0690 0.1340 -0.2857 0.0242 -0.2614
10.2000 -0.2220 -0.0721 0.1354 -0.2968 0.0111 -0.2857
10.1000 -0.2443 -0.0761 0.1384 -0.3077 0.0006 -0.3070
10.0000 -0.2645 -0.0798 0.1392 -0.3180 -0.0061 -0.3242
9.9000 -0.2611 -0.0845 0.1439 -0.3297 0.0088 -0.3208
9.8000 -0.2671 -0.0880 0.1464 -0.3411 0.0153 -0.3258
9.7000 -0.2505 -0.0902 0.1532 -0.3494 0.0357 -0.3137
9.6000 -0.2275 -0.0933 0.1585 -0.3622 0.0690 -0.2932
9.5000 -0.1891 -0.0957 0.1632 -0.3721 0.1151 -0.2570
9.4000 -0.1319 -0.0983 0.1705 -0.3827 0.1781 -0.2046
9.3000 -0.0732 -0.1020 0.1792 -0.3906 0.2398 -0.1508
9.2000 0.0019 -0.1070 0.1864 -0.3950 0.3171 -0.0779
9.1000 0.0544 -0.1102 0.1874 -0.3981 0.3752 -0.0230
9.0000 0.1044 -0.1150 0.1856 -0.4000 0.4337 0.0337
8.9000 0.1580 -0.1199 0.1915 -0.3995 0.4857 0.0862
8.8000 0.1990 -0.1256 0.1917 -0.3970 0.5298 0.1328
8.7000 0.2407 -0.1307 0.1916 -0.3942 0.5738 0.1796
8.6000 0.2821 -0.1363 0.1912 -0.3908 0.6176 0.2268
8.5000 0.3042 -0.1428 0.1945 -0.3863 0.6383 0.2521
8.4000 0.3168 -0.1492 0.1971 -0.3827 0.6512 0.2685
8.3000 0.3119 -0.1559 0.1978 -0.3792 0.6488 0.2696
8.2000 0.2822 -0.1635 0.2004 -0.3746 0.6194 0.2448
8.1000 0.2261 -0.1726 0.1992 -0.3720 0.5710 0.1990
8.0000 0.1475 -0.1831 0.2060 -0.3666 0.4907 0.1240
7.9000 0.0850 -0.1941 0.2168 -0.3643 0.4264 0.0622
7.8000 0.0056 -0.2057 0.2247 -0.3626 0.3489 -0.0137
7.7000 -0.0885 -0.2182 0.2368 -0.3653 0.2580 -0.1073
7.6000 -0.2024 -0.2318 0.2498 -0.3690 0.1484 -0.2206
7.5000 -0.3205 -0.2465 0.2556 -0.3729 0.0430 -0.3298
7.4000 -0.4563 -0.2625 0.2612 -0.3776 -0.0778 -0.4555
7.3000 -0.5807 -0.2797 0.2681 -0.3830 -0.1866 -0.5696
7.2000 -0.7091 -0.2984 0.2730 -0.3866 -0.2976 -0.6841
7.1000 -0.8197 -0.3187 0.2813 -0.3957 -0.3873 -0.7830
7.0000 -0.9112 -0.3408 0.2822 -0.4051 -0.4481 -0.8532
6.9000 -0.9773 -0.3647 0.2782 -0.4136 -0.4777 -0.8914
6.8000 -0.9830 -0.3908 0.2743 -0.4223 -0.4448 -0.8671
6.7000 -0.9372 -0.4191 0.2658 -0.4282 -0.3563 -0.7845
6.6000 -0.8014 -0.4501 0.2633 -0.4355 -0.1794 -0.6149
6.5000 -0.5722 -0.4837 0.2487 -0.4381 0.1006 -0.3375
6.4000 -0.2891 -0.5205 0.2295 -0.4377 0.4391 0.0014
6.3000 0.0322 -0.5606 0.2190 -0.4337 0.8070 0.3733
6.2000 0.2733 -0.6045 0.2142 -0.4208 1.0839 0.6631
6.1000 0.4711 -0.6526 0.2209 -0.4012 1.3033 0.9022
6.0000 0.6205 -0.7053 0.2307 -0.3746 1.4690 1.0944
5.9000 0.7421 -0.7631 0.2460 -0.3415 1.6001 1.2586
5.8000 0.8302 -0.8266 0.2765 -0.3034 1.6831 1.3797
5.7000 0.9351 -0.8965 0.3074 -0.2601 1.7836 1.5235
5.6000 1.0325 -0.9734 0.3442 -0.2101 1.8712 1.6611
5.5000 1.1231 -1.0582 0.3870 -0.1541 1.9477 1.7936
5.4000 1.1780 -1.1516 0.4259 -0.0906 1.9941 1.9035
5.3000 1.2144 -1.2548 0.4646 -0.0190 2.0234 2.0044
5.2000 1.2281 -1.3687 0.5037 0.0587 2.0341 2.0928
5.1000 1.2375 -1.4945 0.5474 0.1432 2.0410 2.1842
5.0000 1.1954 -1.6334 0.5837 0.2368 2.0080 2.2449
4.9000 1.1117 -1.7867 0.6175 0.3398 1.9407 2.2806
4.8000 0.9825 -1.9558 0.6470 0.4491 1.8417 2.2909
4.7000 0.7946 -2.1417 0.6681 0.5681 1.6997 2.2678
4.6000 0.5787 -2.3455 0.6838 0.6930 1.5470 2.2400
4.5000 0.3021 -2.5678 0.6876 0.8279 1.3539 2.1818
4.4000 -0.0174 -2.8085 0.6781 0.9686 1.1439 2.1126
4.3000 -0.3777 -3.0662 0.6685 1.1185 0.9009 2.0194
4.2000 -0.8008 -3.3373 0.6483 1.2764 0.6113 1.8878
4.1000 -1.2341 -3.6152 0.6234 1.4337 0.3238 1.7574
4.0000 -1.7040 -3.8877 0.5814 1.6005 0.0015 1.6020
3.9000 -2.1737 -4.1347 0.5404 1.7704 -0.3502 1.4202
3.8000 -2.6059 -4.3226 0.4791 1.9479 -0.7106 1.2372
3.7000 -2.9603 -4.3978 0.4050 2.1279 -1.0959 1.0320
3.6000 -3.1346 -4.2742 0.3217 2.3117 -1.4943 0.8174
3.5000 -2.9905 -3.8152 0.2353 2.4977 -1.9089 0.5888
3.4000 -2.3131 -2.8042 0.1404 2.6850 -2.3349 0.3501
3.3000 -0.7661 -0.8981 0.0351 2.8773 -2.7810 0.0962
3.2000 2.2169 2.4477 -0.0665 3.0700 -3.2350 -0.1650
3.1000 7.4821 8.0983 -0.1821 3.2677 -3.7025 -0.4348
3.0000 16.4123 17.4312 -0.2943 3.4665 -4.1916 -0.7251
2.9000 31.2037 32.6421 -0.4174 3.6687 -4.6900 -1.0213
2.8000 55.3876 57.2337 -0.5340 3.8708 -5.1831 -1.3123
2.7000 94.5301 96.7878 -0.6460 4.0770 -5.6891 -1.6121
2.6000 157.4755 160.1699 -0.7627 4.2825 -6.2146 -1.9321
2.5000 258.2510 261.3745 -0.8736 4.4876 -6.7380 -2.2505
2.4000 418.7017 422.2537 -0.9794 4.6936 -7.2668 -2.5732
2.3000 672.4132 676.3912 -1.0755 4.8979 -7.8009 -2.9030
2.2000 1069.7624 1074.1855 -1.1744 5.1050 -8.3541 -3.2492
2.1000 1683.9366 1688.7617 -1.2474 5.3098 -8.8879 -3.5781
2.0000 2616.0671 2621.2869 -1.3050 5.5141 -9.4291 -3.9150
1.9000 3997.0001 4002.5969 -1.3534 5.7144 -9.9579 -4.2435
1.8000 5980.1768 5986.1353 -1.3783 5.9126 -10.4931 -4.5804
1.7000 8720.4120 8726.7002 -1.3788 6.1070 -11.0160 -4.9090
1.6000 12337.4533 12344.0405 -1.3632 6.2991 -11.5220 -5.2229
1.5000 16877.1214 16883.9716 -1.3209 6.4866 -12.0140 -5.5274
1.4000 22306.3284 22313.4028 -1.2516 6.6681 -12.4899 -5.8218
1.3000 28601.8288 28609.1018 -1.1543 6.8427 -12.9585 -6.1158
