# 0-dist(Ang),1-dGtot,2-dGvac,3-dGele,4-dGdis,5-dGcav,6-dGvdw(kT)
13.5000 0.0000 0.0000 0.0000 0.0000 0.0000 0.0000
13.4000 0.0205 -0.0011 0.0002 0.0045 0.0169 0.0214
13.3000 0.0248 -0.0035 0.0012 0.0118 0.0152 0.0271
13.2000 0.0254 -0.0068 0.0035 0.0152 0.0136 0.0289
13.1000 0.0323 -0.0116 0.0060 0.0200 0.0180 0.0380
13.0000 0.0330 -0.0177 0.0085 0.0256 0.0167 0.0423
12.9000 0.0117 -0.0253 0.0104 0.0332 -0.0065 0.0267
12.8000 -0.0054 -0.0341 0.0134 0.0401 -0.0247 0.0153
12.7000 -0.0262 -0.0423 0.0160 0.0477 -0.0474 0.0002
12.6000 -0.0476 -0.0463 0.0190 0.0542 -0.0744 -0.0202
12.5000 -0.0794 -0.0477 0.0210 0.0623 -0.1149 -0.0526
12.4000 -0.1107 -0.0480 0.0237 0.0685 -0.1548 -0.0863
12.3000 -0.1494 -0.0479 0.0271 0.0744 -0.2029 -0.1285
12.2000 -0.1796 -0.0454 0.0313 0.0813 -0.2467 -0.1654
12.1000 -0.2161 -0.0421 0.0338 0.0866 -0.2942 -0.2076
12.0000 -0.2561 -0.0370 0.0389 0.0916 -0.3495 -0.2579
11.9000 -0.3048 -0.0329 0.0407 0.0953 -0.4077 -0.3124
11.8000 -0.3261 -0.0295 0.0449 0.0989 -0.4403 -0.3414
11.7000 -0.3426 -0.0261 0.0483 0.1027 -0.4673 -0.3646
11.6000 -0.3853 -0.0258 0.0510 0.1044 -0.5147 -0.4103
11.5000 -0.4274 -0.0264 0.0548 0.1044 -0.5600 -0.4556
11.4000 -0.4594 -0.0279 0.0575 0.1058 -0.5946 -0.4888
11.3000 -0.4863 -0.0308 0.0616 0.1060 -0.6228 -0.5168
11.2000 -0.5198 -0.0343 0.0662 0.1066 -0.6580 -0.5514
11.1000 -0.5433 -0.0384 0.0715 0.1049 -0.6810 -0.5762
11.0000 -0.5423 -0.0428 0.0782 0.1035 -0.6809 -0.5774
10.9000 -0.5403 -0.0482 0.0877 0.1012 -0.6808 -0.5795
10.8000 -0.5309 -0.0535 0.0987 0.0990 -0.6747 -0.5757
10.7000 -0.5054 -0.0571 0.1117 0.0984 -0.6581 -0.5597
10.6000 -0.4590 -0.0611 0.1262 0.0978 -0.6216 -0.5237
10.5000 -0.3743 -0.0643 0.1391 0.0988 -0.5475 -0.4487
10.4000 -0.2734 -0.0671 0.1500 0.1019 -0.4579 -0.3560
10.3000 -0.1431 -0.0703 0.1602 0.1039 -0.3365 -0.2326
10.2000 0.0040 -0.0739 0.1664 0.1115 -0.1995 -0.0880
10.1000 0.1516 -0.0779 0.1677 0.1201 -0.0580 0.0621
10.0000 0.3339 -0.0819 0.1651 0.1320 0.1191 0.2511
9.9000 0.5056 -0.0866 0.1575 0.1468 0.2882 0.4350
9.8000 0.6659 -0.0915 0.1461 0.1660 0.4458 0.6118
9.7000 0.8008 -0.0968 0.1346 0.1867 0.5767 0.7634
9.6000 0.8773 -0.1025 0.1204 0.2126 0.6472 0.8598
9.5000 0.8890 -0.1086 0.1074 0.2417 0.6489 0.8907
9.4000 0.8623 -0.1154 0.0964 0.2710 0.6107 0.8817
9.3000 0.8074 -0.1228 0.0844 0.2997 0.5465 0.8462
9.2000 0.7170 -0.1308 0.0758 0.3302 0.4423 0.7725
9.1000 0.6051 -0.1395 0.0718 0.3583 0.3150 0.6733
9.0000 0.4662 -0.1489 0.0709 0.3870 0.1576 0.5446
8.9000 0.3237 -0.1590 0.0732 0.4111 -0.0012 0.4099
8.8000 0.1652 -0.1699 0.0785 0.4304 -0.1732 0.2572
8.7000 -0.0084 -0.1818 0.0859 0.4483 -0.3602 0.0881
8.6000 -0.1847 -0.1947 0.0964 0.4617 -0.5476 -0.0859
8.5000 -0.3775 -0.2086 0.1058 0.4729 -0.7470 -0.2741
8.4000 -0.5772 -0.2238 0.1180 0.4793 -0.9502 -0.4709
8.3000 -0.7754 -0.2403 0.1318 0.4815 -1.1480 -0.6665
8.2000 -0.9664 -0.2581 0.1445 0.4795 -1.3318 -0.8524
8.1000 -1.1486 -0.2776 0.1569 0.4772 -1.5046 -1.0274
8.0000 -1.3277 -0.2988 0.1698 0.4753 -1.6737 -1.1983
7.9000 -1.4747 -0.3219 0.1819 0.4710 -1.8052 -1.3343
7.8000 -1.5949 -0.3471 0.1928 0.4729 -1.9130 -1.4401
7.7000 -1.6595 -0.3747 0.2030 0.4786 -1.9659 -1.4873
7.6000 -1.6824 -0.4049 0.2146 0.4898 -1.9815 -1.4917
7.5000 -1.6214 -0.4379 0.2244 0.5067 -1.9142 -1.4075
7.4000 -1.4658 -0.4741 0.2343 0.5314 -1.7569 -1.2255
7.3000 -1.2078 -0.5139 0.2449 0.5614 -1.4997 -0.9383
7.2000 -0.7968 -0.5575 0.2565 0.5981 -1.0934 -0.4953
7.1000 -0.2101 -0.6056 0.2664 0.6391 -0.5094 0.1297
7.0000 0.5460 -0.6585 0.2794 0.6886 0.2371 0.9256
6.9000 1.4702 -0.7168 0.2897 0.7451 1.1529 1.8980
6.8000 2.4708 -0.7812 0.2999 0.8143 2.1384 2.9527
6.7000 3.2512 -0.8523 0.3018 0.9042 2.8982 3.8023
6.6000 3.6311 -0.9309 0.2961 1.0146 3.2520 4.2666
6.5000 3.7147 -1.0180 0.2874 1.1411 3.3049 4.4460
6.4000 3.7323 -1.1145 0.2805 1.2776 3.2894 4.5670
6.3000 3.6953 -1.2215 0.2765 1.4209 3.2200 4.6409
6.2000 3.6052 -1.3402 0.2749 1.5723 3.0989 4.6712
6.1000 3.4621 -1.4720 0.2743 1.7336 2.9269 4.6605
6.0000 3.2875 -1.6184 0.2767 1.9011 2.7289 4.6300
5.9000 3.0754 -1.7810 0.2810 2.0767 2.4994 4.5761
5.8000 2.8191 -1.9616 0.2863 2.2587 2.2364 4.4951
5.7000 2.5283 -2.1618 0.2927 2.4443 1.9538 4.3982
5.6000 2.1997 -2.3836 0.2981 2.6363 1.6496 4.2859
5.5000 1.8168 -2.6287 0.3020 2.8365 1.3077 4.1442
5.4000 1.3883 -2.8984 0.3062 3.0399 0.9412 3.9812
5.3000 0.9227 -3.1937 0.3097 3.2475 0.5598 3.8073
5.2000 0.4195 -3.5143 0.3102 3.4600 0.1643 3.6243
5.1000 -0.1285 -3.8584 0.3096 3.6779 -0.2570 3.4209
5.0000 -0.7060 -4.2212 0.3086 3.8990 -0.6918 3.2072
4.9000 -1.3046 -4.5931 0.3049 4.1251 -1.1408 2.9843
4.8000 -1.9009 -4.9572 0.3020 4.3545 -1.5995 2.7550
4.7000 -2.4832 -5.2849 0.2985 4.5859 -2.0819 2.5039
4.6000 -2.9909 -5.5283 0.2925 4.8207 -2.5750 2.2457
4.5000 -3.3406 -5.6097 0.2864 5.0585 -3.0750 1.9835
4.4000 -3.4141 -5.4027 0.2804 5.2966 -3.5877 1.7090
4.3000 -2.9936 -4.7025 0.2748 5.5376 -4.1029 1.4348
4.2000 -1.7642 -3.1753 0.2679 5.7821 -4.6384 1.1437
4.1000 0.8276 -0.2742 0.2620 6.0286 -5.1883 0.8403
4.0000 5.6917 4.9067 0.2574 6.2757 -5.7475 0.5282
3.9000 14.3379 13.8861 0.2518 6.5227 -6.3222 0.2005
3.8000 29.3606 29.2498 0.2466 6.7732 -6.9085 -0.1353
3.7000 55.2453 55.4750 0.2411 7.0220 -7.4923 -0.4703
3.6000 99.8747 100.4686 0.2366 7.2693 -8.0993 -0.8299
3.5000 177.5343 178.5025 0.2313 7.5162 -8.7153 -1.1991
3.4000 314.6244 315.9737 0.2269 7.7635 -9.3392 -1.5758
3.3000 561.2917 563.0392 0.2226 8.0091 -9.9787 -1.9696
3.2000 1015.7590 1017.9082 0.2194 8.2498 -10.6179 -2.3682
3.1000 1876.7926 1879.3531 0.2144 8.4883 -11.2627 -2.7744
3.0000 3561.7837 3564.7811 0.2119 8.7241 -11.9327 -3.2086
2.9000 6983.8611 6987.2998 0.2083 8.9528 -12.5986 -3.6459
2.8000 14233.3462 14237.2415 0.2062 9.1763 -13.2755 -4.0993
2.7000 30342.7871 30347.1404 0.2046 9.3918 -13.9466 -4.5548
2.6000 68118.0848 68122.9359 0.2039 9.5990 -14.6440 -5.0449
2.5000 162154.3756 162159.7217 0.2037 9.7992 -15.3302 -5.5310
2.4000 411924.5006 411930.3901 0.2026 9.9864 -16.0333 -6.0469
2.3000 1121403.5694 1121410.0790 0.1997 10.1651 -16.7528 -6.5878
2.2000 3268605.6017 3268612.7751 0.1961 10.3294 -17.4772 -7.1478
2.1000 10089589.6933 10089598.5436 0.1910 10.4817 -18.2093 -7.7276
2.0000 32083539.1330 32083549.1673 0.1850 10.6189 -18.9393 -8.3203
1.9000 99775480.1869 99775491.0007 0.1730 10.7444 -19.6857 -8.9413
1.8000 280373869.9270 280373901.6658 0.1559 10.8577 -20.4371 -9.5794
1.7000 651701697.1565 651701765.8382 0.1340 10.9610 -21.1964 -10.2354
1.6000 1236430005.9551 1236430193.1713 0.1038 11.0568 -21.9273 -10.8705
1.5000 2761167653.7712 2761167934.3743 0.0669 11.1461 -22.6480 -11.5019
1.4000 16839647471.1059 16839650942.8250 0.0169 11.2291 -23.3231 -12.0940
1.3000 271753031699.8790 271753084674.9991 -0.0474 11.3063 -23.9409 -12.6346
