# 0-dist(Ang),1-dGtot,2-dGvac,3-dGele,4-dGdis,5-dGcav,6-dGvdw(kT)
13.5000 0.0000 0.0000 0.0000 0.0000 0.0000 0.0000
13.4000 -0.0032 0.0001 -0.0068 -0.0025 0.0061 0.0036
13.3000 -0.0054 0.0003 -0.0139 -0.0057 0.0139 0.0083
13.2000 -0.0049 0.0005 -0.0199 -0.0081 0.0226 0.0145
13.1000 -0.0032 0.0009 -0.0243 -0.0095 0.0297 0.0202
13.0000 -0.0005 0.0011 -0.0309 -0.0131 0.0424 0.0293
12.9000 0.0019 0.0009 -0.0385 -0.0161 0.0556 0.0395
12.8000 0.0080 0.0004 -0.0457 -0.0204 0.0737 0.0533
12.7000 0.0045 -0.0006 -0.0554 -0.0224 0.0830 0.0606
12.6000 0.0100 -0.0018 -0.0612 -0.0245 0.0974 0.0729
12.5000 0.0092 -0.0029 -0.0664 -0.0278 0.1062 0.0784
12.4000 0.0259 -0.0046 -0.0714 -0.0304 0.1321 0.1017
12.3000 0.0255 -0.0066 -0.0799 -0.0322 0.1439 0.1117
12.2000 0.0251 -0.0088 -0.0865 -0.0351 0.1557 0.1207
12.1000 0.0245 -0.0112 -0.0952 -0.0369 0.1681 0.1312
12.0000 0.0312 -0.0139 -0.0996 -0.0398 0.1849 0.1451
11.9000 0.0262 -0.0181 -0.1084 -0.0405 0.1936 0.1531
11.8000 0.0276 -0.0214 -0.1147 -0.0422 0.2055 0.1633
11.7000 0.0286 -0.0250 -0.1204 -0.0449 0.2187 0.1738
11.6000 0.0236 -0.0283 -0.1264 -0.0456 0.2237 0.1781
11.5000 0.0273 -0.0318 -0.1304 -0.0470 0.2363 0.1893
11.4000 0.0282 -0.0352 -0.1348 -0.0485 0.2468 0.1982
11.3000 0.0289 -0.0393 -0.1380 -0.0516 0.2578 0.2062
11.2000 0.0274 -0.0443 -0.1407 -0.0540 0.2664 0.2124
11.1000 0.0205 -0.0500 -0.1438 -0.0547 0.2691 0.2144
11.0000 0.0125 -0.0577 -0.1483 -0.0560 0.2746 0.2185
10.9000 -0.0003 -0.0647 -0.1542 -0.0569 0.2755 0.2186
10.8000 -0.0106 -0.0711 -0.1637 -0.0597 0.2838 0.2242
10.7000 -0.0131 -0.0761 -0.1682 -0.0627 0.2939 0.2312
10.6000 -0.0217 -0.0799 -0.1762 -0.0645 0.2988 0.2343
10.5000 -0.0355 -0.0835 -0.1832 -0.0679 0.2990 0.2311
10.4000 -0.0503 -0.0872 -0.1932 -0.0718 0.3020 0.2301
10.3000 -0.0557 -0.0913 -0.2023 -0.0747 0.3125 0.2378
10.2000 -0.0710 -0.0951 -0.2100 -0.0765 0.3105 0.2340
10.1000 -0.0791 -0.0993 -0.2187 -0.0808 0.3196 0.2389
10.0000 -0.0879 -0.1039 -0.2236 -0.0837 0.3232 0.2395
9.9000 -0.0989 -0.1086 -0.2306 -0.0871 0.3273 0.2402
9.8000 -0.1014 -0.1149 -0.2381 -0.0913 0.3429 0.2515
9.7000 -0.1053 -0.1211 -0.2484 -0.0953 0.3600 0.2647
9.6000 -0.1027 -0.1264 -0.2588 -0.0992 0.3821 0.2829
9.5000 -0.0896 -0.1333 -0.2669 -0.1025 0.4135 0.3110
9.4000 -0.0711 -0.1400 -0.2769 -0.1056 0.4520 0.3464
9.3000 -0.0471 -0.1468 -0.2881 -0.1084 0.4960 0.3876
9.2000 -0.0179 -0.1560 -0.2996 -0.1110 0.5484 0.4374
9.1000 0.0187 -0.1640 -0.3078 -0.1116 0.6019 0.4903
9.0000 0.0474 -0.1717 -0.3186 -0.1119 0.6495 0.5376
8.9000 0.0908 -0.1800 -0.3280 -0.1111 0.7101 0.5990
8.8000 0.1198 -0.1889 -0.3389 -0.1096 0.7574 0.6478
8.7000 0.1485 -0.1977 -0.3436 -0.1058 0.7957 0.6899
8.6000 0.1669 -0.2061 -0.3501 -0.0991 0.8222 0.7231
8.5000 0.1727 -0.2142 -0.3544 -0.0925 0.8340 0.7414
8.4000 0.1741 -0.2220 -0.3608 -0.0850 0.8421 0.7571
8.3000 0.1758 -0.2285 -0.3651 -0.0773 0.8470 0.7698
8.2000 0.1654 -0.2335 -0.3726 -0.0686 0.8403 0.7717
8.1000 0.1484 -0.2382 -0.3782 -0.0605 0.8257 0.7651
8.0000 0.1184 -0.2436 -0.3833 -0.0526 0.7981 0.7455
7.9000 0.0792 -0.2509 -0.3880 -0.0447 0.7633 0.7187
7.8000 0.0229 -0.2600 -0.3955 -0.0384 0.7174 0.6790
7.7000 -0.0353 -0.2706 -0.4031 -0.0325 0.6715 0.6390
7.6000 -0.1127 -0.2832 -0.4099 -0.0265 0.6074 0.5809
7.5000 -0.2006 -0.2984 -0.4165 -0.0228 0.5375 0.5147
7.4000 -0.2942 -0.3163 -0.4246 -0.0195 0.4665 0.4470
7.3000 -0.3951 -0.3362 -0.4325 -0.0174 0.3913 0.3739
7.2000 -0.4971 -0.3582 -0.4434 -0.0160 0.3208 0.3048
7.1000 -0.5992 -0.3818 -0.4545 -0.0152 0.2527 0.2375
7.0000 -0.6918 -0.4074 -0.4689 -0.0148 0.1999 0.1851
6.9000 -0.7648 -0.4352 -0.4837 -0.0144 0.1691 0.1546
6.8000 -0.8110 -0.4654 -0.5025 -0.0156 0.1727 0.1571
6.7000 -0.8235 -0.4981 -0.5229 -0.0162 0.2140 0.1978
6.6000 -0.7756 -0.5336 -0.5459 -0.0160 0.3205 0.3046
6.5000 -0.6644 -0.5721 -0.5699 -0.0154 0.4936 0.4782
6.4000 -0.4905 -0.6141 -0.5941 -0.0124 0.7307 0.7184
6.3000 -0.2705 -0.6597 -0.6154 -0.0069 1.0122 1.0053
6.2000 -0.0433 -0.7094 -0.6293 0.0041 1.2916 1.2957
6.1000 0.1618 -0.7636 -0.6402 0.0205 1.5455 1.5660
6.0000 0.3237 -0.8229 -0.6433 0.0419 1.7483 1.7901
5.9000 0.4690 -0.8876 -0.6410 0.0723 1.9256 1.9980
5.8000 0.5896 -0.9585 -0.6341 0.1127 2.0700 2.1827
5.7000 0.6994 -1.0361 -0.6230 0.1582 2.2006 2.3588
5.6000 0.8107 -1.1212 -0.6069 0.2100 2.3291 2.5391
5.5000 0.9110 -1.2146 -0.5889 0.2698 2.4451 2.7149
5.4000 1.0051 -1.3172 -0.5690 0.3360 2.5561 2.8921
5.3000 1.0795 -1.4300 -0.5459 0.4109 2.6451 3.0560
5.2000 1.1314 -1.5540 -0.5205 0.4938 2.7128 3.2066
5.1000 1.1506 -1.6903 -0.4943 0.5860 2.7500 3.3360
5.0000 1.1365 -1.8403 -0.4711 0.6856 2.7629 3.4485
4.9000 1.0851 -2.0051 -0.4510 0.7947 2.7469 3.5416
4.8000 0.9766 -2.1860 -0.4344 0.9135 2.6840 3.5975
4.7000 0.8247 -2.3841 -0.4217 1.0379 2.5931 3.6310
4.6000 0.6294 -2.6004 -0.4132 1.1696 2.4738 3.6434
4.5000 0.3825 -2.8353 -0.4130 1.3089 2.3225 3.6314
4.4000 0.0954 -3.0885 -0.4183 1.4566 2.1461 3.6027
4.3000 -0.2363 -3.3584 -0.4336 1.6099 1.9464 3.5563
4.2000 -0.6047 -3.6412 -0.4530 1.7676 1.7223 3.4899
4.1000 -1.0008 -3.9296 -0.4827 1.9322 1.4800 3.4122
4.0000 -1.4127 -4.2110 -0.5194 2.1029 1.2155 3.3183
3.9000 -1.8141 -4.4639 -0.5669 2.2770 0.9405 3.2175
3.8000 -2.1728 -4.6537 -0.6236 2.4559 0.6492 3.1051
3.7000 -2.4312 -4.7241 -0.6904 2.6402 0.3434 2.9836
3.6000 -2.4959 -4.5853 -0.7641 2.8280 0.0256 2.8536
3.5000 -2.2277 -4.0941 -0.8437 3.0201 -0.3098 2.7103
3.4000 -1.3981 -3.0223 -0.9343 3.2145 -0.6557 2.5588
3.3000 0.3684 -1.0054 -1.0261 3.4133 -1.0131 2.4002
3.2000 3.6429 2.5407 -1.1284 3.6149 -1.3840 2.2309
3.1000 9.3770 8.5565 -1.2335 3.8189 -1.7645 2.0544
3.0000 19.0903 18.5644 -1.3438 4.0237 -2.1536 1.8700
2.9000 35.2632 35.0429 -1.4559 4.2308 -2.5539 1.6769
2.8000 61.9518 62.0473 -1.5687 4.4391 -2.9654 1.4737
2.7000 105.8345 106.2466 -1.6837 4.6496 -3.3775 1.2721
2.6000 177.8974 178.6442 -1.7977 4.8620 -3.8106 1.0515
2.5000 296.3367 297.4202 -1.9067 5.0747 -4.2508 0.8238
2.4000 491.1409 492.5683 -2.0146 5.2878 -4.7003 0.5875
2.3000 811.5097 813.2898 -2.1176 5.5017 -5.1639 0.3378
2.2000 1337.2225 1339.3484 -2.2085 5.7154 -5.6324 0.0830
2.1000 2195.0270 2197.5016 -2.2955 5.9283 -6.1069 -0.1786
2.0000 3580.0328 3582.8435 -2.3691 6.1406 -6.5818 -0.4412
1.9000 5778.1164 5781.2640 -2.4345 6.3506 -7.0631 -0.7124
1.8000 9177.7208 9181.1948 -2.4851 6.5607 -7.5488 -0.9881
1.7000 14246.7609 14250.5440 -2.5200 6.7661 -8.0293 -1.2632
1.6000 21440.5216 21444.6035 -2.5372 6.9687 -8.5134 -1.5446
1.5000 31018.6044 31022.9685 -2.5400 7.1674 -8.9929 -1.8255
1.4000 42821.0557 42825.6935 -2.5234 7.3622 -9.4801 -2.1179
1.3000 56192.2124 56197.1146 -2.4856 7.5521 -9.9700 -2.4179
