# 0-dist(Ang),1-dGtot,2-dGvac,3-dGele,4-dGdis,5-dGcav,6-dGvdw(kT)
13.5000 0.0000 0.0000 0.0000 0.0000 0.0000 0.0000
13.4000 0.0115 0.0000 0.0025 -0.0009 0.0099 0.0090
13.3000 0.0289 0.0000 0.0050 -0.0005 0.0243 0.0239
13.2000 0.0484 -0.0000 0.0086 -0.0012 0.0410 0.0398
13.1000 0.0633 0.0000 0.0113 -0.0013 0.0534 0.0520
13.0000 0.0882 0.0001 0.0135 -0.0016 0.0761 0.0746
12.9000 0.1025 -0.0001 0.0155 -0.0030 0.0900 0.0870
12.8000 0.1216 -0.0007 0.0166 -0.0023 0.1080 0.1058
12.7000 0.1386 -0.0012 0.0181 -0.0014 0.1230 0.1217
12.6000 0.1565 -0.0015 0.0190 -0.0000 0.1390 0.1390
12.5000 0.1487 -0.0021 0.0185 0.0010 0.1313 0.1323
12.4000 0.1528 -0.0029 0.0191 0.0020 0.1346 0.1366
12.3000 0.1619 -0.0039 0.0187 0.0039 0.1431 0.1470
12.2000 0.1622 -0.0050 0.0183 0.0051 0.1437 0.1488
12.1000 0.1615 -0.0064 0.0176 0.0063 0.1440 0.1502
12.0000 0.1658 -0.0083 0.0169 0.0092 0.1480 0.1572
11.9000 0.1727 -0.0130 0.0151 0.0107 0.1598 0.1705
11.8000 0.1579 -0.0148 0.0137 0.0115 0.1475 0.1590
11.7000 0.1556 -0.0169 0.0127 0.0121 0.1477 0.1598
11.6000 0.1470 -0.0190 0.0120 0.0133 0.1408 0.1541
11.5000 0.1189 -0.0200 0.0110 0.0140 0.1140 0.1280
11.4000 0.0919 -0.0209 0.0094 0.0157 0.0877 0.1034
11.3000 0.0783 -0.0214 0.0088 0.0165 0.0743 0.0909
11.2000 0.0537 -0.0223 0.0079 0.0167 0.0514 0.0681
11.1000 0.0219 -0.0235 0.0082 0.0184 0.0187 0.0371
11.0000 0.0091 -0.0249 0.0077 0.0201 0.0063 0.0263
10.9000 -0.0244 -0.0261 0.0066 0.0195 -0.0244 -0.0049
10.8000 -0.0532 -0.0266 0.0067 0.0201 -0.0534 -0.0332
10.7000 -0.0819 -0.0281 0.0058 0.0196 -0.0792 -0.0596
10.6000 -0.1044 -0.0285 0.0059 0.0189 -0.1007 -0.0818
10.5000 -0.1372 -0.0289 0.0053 0.0185 -0.1320 -0.1135
10.4000 -0.1563 -0.0292 0.0062 0.0170 -0.1502 -0.1332
10.3000 -0.1707 -0.0300 0.0069 0.0150 -0.1626 -0.1476
10.2000 -0.1879 -0.0305 0.0082 0.0126 -0.1782 -0.1656
10.1000 -0.2041 -0.0312 0.0093 0.0095 -0.1916 -0.1821
10.0000 -0.2025 -0.0318 0.0107 0.0074 -0.1887 -0.1812
9.9000 -0.2056 -0.0327 0.0131 0.0047 -0.1906 -0.1859
9.8000 -0.1988 -0.0341 0.0159 0.0019 -0.1824 -0.1805
9.7000 -0.1680 -0.0356 0.0184 0.0008 -0.1515 -0.1507
9.6000 -0.1442 -0.0374 0.0203 -0.0000 -0.1268 -0.1268
9.5000 -0.1078 -0.0393 0.0229 -0.0019 -0.0893 -0.0912
9.4000 -0.0369 -0.0413 0.0247 -0.0025 -0.0175 -0.0201
9.3000 0.0390 -0.0435 0.0264 -0.0003 0.0565 0.0562
9.2000 0.1205 -0.0460 0.0279 0.0034 0.1353 0.1387
9.1000 0.1956 -0.0486 0.0288 0.0093 0.2063 0.2155
9.0000 0.2918 -0.0515 0.0288 0.0147 0.2999 0.3146
8.9000 0.3621 -0.0547 0.0290 0.0235 0.3645 0.3880
8.8000 0.4331 -0.0581 0.0278 0.0320 0.4314 0.4634
8.7000 0.5188 -0.0618 0.0266 0.0432 0.5108 0.5540
8.6000 0.5717 -0.0658 0.0248 0.0549 0.5579 0.6127
8.5000 0.6118 -0.0701 0.0220 0.0667 0.5932 0.6599
8.4000 0.6183 -0.0747 0.0199 0.0793 0.5939 0.6732
8.3000 0.6068 -0.0797 0.0163 0.0910 0.5794 0.6704
8.2000 0.5794 -0.0851 0.0122 0.1015 0.5508 0.6523
8.1000 0.5234 -0.0909 0.0076 0.1134 0.4935 0.6069
8.0000 0.4528 -0.0972 0.0035 0.1234 0.4232 0.5466
7.9000 0.3550 -0.1040 -0.0002 0.1318 0.3275 0.4593
7.8000 0.2410 -0.1113 -0.0039 0.1387 0.2176 0.3564
7.7000 0.1308 -0.1193 -0.0078 0.1443 0.1136 0.2579
7.6000 0.0168 -0.1279 -0.0109 0.1476 0.0080 0.1557
7.5000 -0.1093 -0.1373 -0.0121 0.1492 -0.1091 0.0401
7.4000 -0.2365 -0.1475 -0.0130 0.1503 -0.2264 -0.0761
7.3000 -0.3823 -0.1585 -0.0129 0.1497 -0.3606 -0.2109
7.2000 -0.5121 -0.1706 -0.0119 0.1465 -0.4760 -0.3295
7.1000 -0.6463 -0.1837 -0.0114 0.1444 -0.5955 -0.4511
7.0000 -0.7509 -0.1981 -0.0097 0.1421 -0.6852 -0.5431
6.9000 -0.8367 -0.2137 -0.0087 0.1415 -0.7558 -0.6143
6.8000 -0.8951 -0.2308 -0.0080 0.1407 -0.7970 -0.6563
6.7000 -0.9043 -0.2496 -0.0067 0.1430 -0.7911 -0.6481
6.6000 -0.8465 -0.2701 -0.0068 0.1488 -0.7185 -0.5697
6.5000 -0.7084 -0.2926 -0.0066 0.1585 -0.5678 -0.4093
6.4000 -0.4937 -0.3173 -0.0054 0.1717 -0.3427 -0.1710
6.3000 -0.2378 -0.3445 -0.0049 0.1889 -0.0775 0.1114
6.2000 0.0740 -0.3744 -0.0031 0.2099 0.2413 0.4512
6.1000 0.3560 -0.4073 -0.0005 0.2357 0.5279 0.7636
6.0000 0.5748 -0.4436 0.0028 0.2675 0.7480 1.0155
5.9000 0.7618 -0.4837 0.0050 0.3033 0.9371 1.2404
5.8000 0.9549 -0.5280 0.0066 0.3458 1.1305 1.4763
5.7000 1.1691 -0.5771 0.0081 0.3929 1.3451 1.7380
5.6000 1.3771 -0.6314 0.0079 0.4467 1.5537 2.0005
5.5000 1.5812 -0.6915 0.0073 0.5061 1.7593 2.2654
5.4000 1.7770 -0.7583 0.0066 0.5710 1.9577 2.5287
5.3000 1.9164 -0.8324 0.0052 0.6408 2.1027 2.7436
5.2000 2.0274 -0.9146 0.0031 0.7168 2.2222 2.9390
5.1000 2.0928 -1.0059 0.0013 0.7990 2.2985 3.0975
5.0000 2.1055 -1.1072 -0.0012 0.8870 2.3270 3.2140
4.9000 2.0922 -1.2196 -0.0041 0.9798 2.3363 3.3160
4.8000 2.0375 -1.3440 -0.0080 1.0790 2.3105 3.3895
4.7000 1.9180 -1.4815 -0.0124 1.1829 2.2289 3.4118
4.6000 1.7724 -1.6327 -0.0153 1.2923 2.1281 3.4203
4.5000 1.5874 -1.7982 -0.0195 1.4066 1.9984 3.4050
4.4000 1.3727 -1.9778 -0.0233 1.5251 1.8486 3.3737
4.3000 1.1147 -2.1702 -0.0270 1.6477 1.6641 3.3118
4.2000 0.8312 -2.3725 -0.0317 1.7765 1.4587 3.2352
4.1000 0.5317 -2.5788 -0.0365 1.9076 1.2392 3.1468
4.0000 0.2233 -2.7786 -0.0409 2.0439 0.9988 3.0427
3.9000 -0.0881 -2.9539 -0.0453 2.1817 0.7292 2.9109
3.8000 -0.3383 -3.0746 -0.0493 2.3224 0.4632 2.7855
3.7000 -0.4943 -3.0913 -0.0533 2.4664 0.1838 2.6501
3.6000 -0.4918 -2.9222 -0.0572 2.6117 -0.1243 2.4875
3.5000 -0.1750 -2.4333 -0.0619 2.7599 -0.4399 2.3200
3.4000 0.6588 -1.4026 -0.0658 2.9096 -0.7823 2.1272
3.3000 2.3996 0.5403 -0.0703 3.0621 -1.1326 1.9296
3.2000 5.6672 4.0204 -0.0746 3.2152 -1.4936 1.7215
3.1000 11.5219 10.1076 -0.0786 3.3683 -1.8755 1.4928
3.0000 21.8283 20.6630 -0.0834 3.5240 -2.2755 1.2485
2.9000 39.8840 38.9818 -0.0881 3.6800 -2.6898 0.9902
2.8000 71.6383 71.0129 -0.0924 3.8354 -3.1178 0.7176
2.7000 128.0446 127.7225 -0.0982 3.9902 -3.5701 0.4201
2.6000 229.7782 229.7630 -0.1045 4.1444 -4.0249 0.1195
2.5000 416.5842 416.8912 -0.1110 4.2983 -4.4946 -0.1963
2.4000 766.6739 767.3197 -0.1184 4.4502 -4.9778 -0.5276
2.3000 1437.1303 1438.1332 -0.1258 4.6009 -5.4780 -0.8771
2.2000 2749.3812 2750.7586 -0.1353 4.7490 -5.9907 -1.2417
2.1000 5371.2227 5372.9814 -0.1456 4.8945 -6.5069 -1.6124
2.0000 10703.4950 10705.6624 -0.1568 5.0357 -7.0440 -2.0083
1.9000 21688.8347 21691.4173 -0.1676 5.1736 -7.5861 -2.4124
1.8000 44438.3228 44441.3363 -0.1794 5.3067 -8.1343 -2.8276
1.7000 91260.6583 91264.1097 -0.1915 5.4349 -8.6879 -3.2530
1.6000 185487.0853 185491.0273 -0.2035 5.5580 -9.2582 -3.7003
1.5000 366756.7756 366761.2026 -0.2142 5.6737 -9.8353 -4.1615
1.4000 690121.8831 690126.8165 -0.2240 5.7836 -10.4161 -4.6325
1.3000 1204448.7317 1204454.0995 -0.2326 5.8859 -11.0146 -5.1288
