# 0-dist(Ang),1-dGtot,2-dGvac,3-dGele,4-dGdis,5-dGcav,6-dGvdw(kT)
13.5000 0.0000 0.0000 0.0000 0.0000 0.0000 0.0000
13.4100 -0.0011 0.0000 -0.0005 0.0008 -0.0013 -0.0005
13.3100 -0.0092 0.0000 -0.0001 0.0005 -0.0096 -0.0091
13.2100 -0.0112 0.0000 0.0003 0.0002 -0.0117 -0.0116
13.1100 -0.0050 0.0000 0.0003 0.0001 -0.0055 -0.0053
13.0100 -0.0014 0.0000 0.0006 0.0003 -0.0023 -0.0020
12.9100 0.0087 0.0000 0.0008 0.0013 0.0065 0.0078
12.8100 0.0060 0.0000 0.0012 0.0019 0.0029 0.0047
12.7100 0.0043 0.0000 0.0015 0.0019 0.0009 0.0029
12.6100 0.0021 0.0005 0.0021 0.0037 -0.0043 -0.0005
12.5100 0.0038 0.0015 0.0029 0.0043 -0.0050 -0.0007
12.4100 0.0106 0.0031 0.0024 0.0048 0.0003 0.0051
12.3100 0.0263 0.0044 0.0026 0.0050 0.0143 0.0193
12.2100 0.0321 0.0051 0.0038 0.0042 0.0191 0.0233
12.1100 0.0390 0.0050 0.0040 0.0040 0.0260 0.0300
12.0100 0.0467 0.0043 0.0036 0.0037 0.0351 0.0388
11.9100 0.0512 0.0032 0.0035 0.0031 0.0414 0.0445
11.8100 0.0577 0.0026 0.0031 0.0049 0.0471 0.0520
11.7100 0.0586 0.0019 0.0032 0.0051 0.0484 0.0535
11.6100 0.0693 0.0012 0.0032 0.0044 0.0606 0.0650
11.5100 0.0664 0.0005 0.0035 0.0053 0.0572 0.0625
11.4100 0.0678 -0.0002 0.0038 0.0064 0.0579 0.0643
11.3100 0.0531 -0.0010 0.0032 0.0063 0.0446 0.0508
11.2100 0.0433 -0.0017 0.0022 0.0059 0.0369 0.0428
11.1100 0.0327 -0.0025 0.0019 0.0066 0.0267 0.0333
11.0100 0.0125 -0.0032 0.0016 0.0073 0.0068 0.0142
10.9100 0.0050 -0.0040 0.0012 0.0059 0.0019 0.0078
10.8100 -0.0120 -0.0053 0.0004 0.0051 -0.0123 -0.0072
10.7100 -0.0271 -0.0059 0.0000 0.0043 -0.0255 -0.0212
10.6100 -0.0525 -0.0065 0.0009 0.0032 -0.0502 -0.0470
10.5100 -0.0772 -0.0067 0.0009 0.0025 -0.0738 -0.0714
10.4100 -0.0990 -0.0074 -0.0001 0.0022 -0.0937 -0.0915
10.3100 -0.1191 -0.0068 -0.0006 0.0010 -0.1128 -0.1118
10.2100 -0.1255 -0.0056 -0.0003 -0.0006 -0.1189 -0.1196
10.1100 -0.1335 -0.0043 -0.0009 -0.0018 -0.1265 -0.1283
10.0100 -0.1492 -0.0035 -0.0015 -0.0018 -0.1425 -0.1443
9.9100 -0.1439 -0.0040 -0.0008 -0.0020 -0.1371 -0.1391
9.8100 -0.1342 -0.0044 -0.0006 -0.0017 -0.1275 -0.1291
9.7100 -0.1340 -0.0053 -0.0002 -0.0011 -0.1275 -0.1285
9.6100 -0.1162 -0.0058 0.0005 -0.0002 -0.1106 -0.1108
9.5100 -0.0892 -0.0063 0.0013 0.0011 -0.0853 -0.0842
9.4100 -0.0479 -0.0069 0.0023 0.0032 -0.0465 -0.0433
9.3100 -0.0033 -0.0075 0.0032 0.0063 -0.0052 0.0011
9.2100 0.0419 -0.0081 0.0034 0.0101 0.0366 0.0467
9.1100 0.0950 -0.0087 0.0038 0.0163 0.0838 0.1000
9.0100 0.1456 -0.0091 0.0046 0.0193 0.1310 0.1503
8.9100 0.1996 -0.0099 0.0053 0.0239 0.1803 0.2042
8.8100 0.2295 -0.0110 0.0062 0.0287 0.2057 0.2344
8.7100 0.2645 -0.0128 0.0062 0.0334 0.2379 0.2713
8.6100 0.2856 -0.0156 0.0065 0.0374 0.2574 0.2948
8.5100 0.3077 -0.0194 0.0066 0.0410 0.2796 0.3206
8.4100 0.3080 -0.0233 0.0068 0.0450 0.2796 0.3246
8.3100 0.2852 -0.0273 0.0075 0.0481 0.2570 0.3051
8.2100 0.2582 -0.0310 0.0068 0.0523 0.2302 0.2825
8.1100 0.2293 -0.0334 0.0075 0.0541 0.2012 0.2553
8.0100 0.1935 -0.0352 0.0067 0.0559 0.1662 0.2220
7.9100 0.1578 -0.0366 0.0063 0.0568 0.1313 0.1881
7.8100 0.1091 -0.0380 0.0057 0.0572 0.0843 0.1415
7.7100 0.0582 -0.0392 0.0054 0.0571 0.0350 0.0921
7.6100 0.0058 -0.0408 0.0052 0.0553 -0.0138 0.0415
7.5100 -0.0485 -0.0424 0.0045 0.0545 -0.0650 -0.0105
7.4100 -0.1107 -0.0443 0.0042 0.0532 -0.1237 -0.0705
7.3100 -0.1671 -0.0464 0.0035 0.0520 -0.1761 -0.1240
7.2100 -0.2239 -0.0490 0.0040 0.0511 -0.2299 -0.1788
7.1100 -0.2776 -0.0521 0.0032 0.0501 -0.2788 -0.2287
7.0100 -0.3333 -0.0558 0.0031 0.0498 -0.3304 -0.2806
6.9100 -0.3682 -0.0600 0.0037 0.0507 -0.3625 -0.3118
6.8100 -0.3884 -0.0648 0.0047 0.0520 -0.3803 -0.3283
6.7100 -0.4005 -0.0702 0.0048 0.0558 -0.3908 -0.3350
6.6100 -0.3879 -0.0761 0.0059 0.0604 -0.3780 -0.3176
6.5100 -0.3648 -0.0826 0.0061 0.0680 -0.3562 -0.2882
6.4100 -0.3196 -0.0898 0.0070 0.0761 -0.3128 -0.2367
6.3100 -0.2524 -0.0976 0.0072 0.0879 -0.2498 -0.1619
6.2100 -0.1559 -0.1063 0.0060 0.0996 -0.1551 -0.0554
6.1100 -0.0270 -0.1160 0.0051 0.1128 -0.0289 0.0839
6.0100 0.1023 -0.1266 0.0040 0.1298 0.0953 0.2252
5.9100 0.2153 -0.1385 0.0021 0.1478 0.2042 0.3519
5.8100 0.3578 -0.1517 -0.0001 0.1678 0.3418 0.5096
5.7100 0.4679 -0.1663 -0.0021 0.1915 0.4450 0.6365
5.6100 0.5814 -0.1826 -0.0052 0.2179 0.5515 0.7694
5.5100 0.6644 -0.2008 -0.0076 0.2460 0.6270 0.8731
5.4100 0.7263 -0.2212 -0.0106 0.2773 0.6810 0.9583
5.3100 0.7579 -0.2440 -0.0136 0.3132 0.7023 1.0155
5.2100 0.7644 -0.2694 -0.0157 0.3519 0.6977 1.0497
5.1100 0.7463 -0.2980 -0.0169 0.3926 0.6687 1.0613
5.0100 0.6867 -0.3300 -0.0184 0.4362 0.5991 1.0352
4.9100 0.6233 -0.3659 -0.0198 0.4813 0.5279 1.0092
4.8100 0.5312 -0.4062 -0.0215 0.5289 0.4302 0.9591
4.7100 0.4115 -0.4513 -0.0235 0.5788 0.3076 0.8864
4.6100 0.2857 -0.5017 -0.0250 0.6316 0.1809 0.8125
4.5100 0.1351 -0.5580 -0.0264 0.6869 0.0329 0.7197
4.4100 -0.0350 -0.6205 -0.0277 0.7436 -0.1301 0.6135
4.3100 -0.2307 -0.6895 -0.0295 0.8016 -0.3131 0.4885
4.2100 -0.4313 -0.7648 -0.0312 0.8604 -0.4954 0.3649
4.1100 -0.6458 -0.8459 -0.0320 0.9218 -0.6894 0.2324
4.0100 -0.8847 -0.9312 -0.0327 0.9871 -0.9077 0.0794
3.9100 -1.1207 -1.0176 -0.0342 1.0518 -1.1205 -0.0686
3.8100 -1.3546 -1.0997 -0.0350 1.1168 -1.3364 -0.2196
3.7100 -1.5846 -1.1678 -0.0364 1.1848 -1.5649 -0.3800
3.6100 -1.7975 -1.2060 -0.0385 1.2537 -1.8063 -0.5526
3.5100 -1.9568 -1.1881 -0.0406 1.3225 -2.0502 -0.7277
3.4100 -2.0270 -1.0711 -0.0430 1.3936 -2.3062 -0.9126
3.3100 -1.9250 -0.7848 -0.0451 1.4658 -2.5606 -1.0949
3.2100 -1.5465 -0.2147 -0.0477 1.5404 -2.8243 -1.2839
3.1100 -0.7060 0.8268 -0.0503 1.6151 -3.0975 -1.4823
3.0100 0.9168 2.6488 -0.0523 1.6917 -3.3713 -1.6796
2.9100 3.8260 5.7648 -0.0543 1.7693 -3.6539 -1.8846
2.8100 8.8784 11.0357 -0.0561 1.8484 -3.9495 -2.1012
2.7100 17.5425 19.9201 -0.0584 1.9277 -4.2468 -2.3191
2.6100 32.3190 34.9192 -0.0600 2.0077 -4.5479 -2.5402
2.5100 57.5536 60.3776 -0.0618 2.0900 -4.8522 -2.7621
2.4100 100.8791 103.9484 -0.0630 2.1729 -5.1791 -3.0062
2.3100 176.0015 179.3128 -0.0635 2.2567 -5.5043 -3.2475
2.2100 307.7714 311.3156 -0.0638 2.3426 -5.8228 -3.4802
2.1100 542.0415 545.8273 -0.0646 2.4306 -6.1516 -3.7210
2.0100 965.0098 969.0425 -0.0644 2.5176 -6.4857 -3.9681
1.9100 1741.7745 1746.0566 -0.0642 2.6056 -6.8230 -4.2175
1.8100 3195.5290 3200.0699 -0.0635 2.6959 -7.1727 -4.4768
1.7100 5975.7684 5980.5662 -0.0626 2.7862 -7.5207 -4.7345
1.6100 11432.4385 11437.4993 -0.0611 2.8776 -7.8757 -4.9981
1.5100 22502.1868 22507.5175 -0.0592 2.9694 -8.2364 -5.2670
1.4100 45983.9809 45989.5873 -0.0568 3.0625 -8.6059 -5.5434
1.3100 98965.9571 98971.8449 -0.0557 3.1567 -8.9766 -5.8199
