# 0-dist(Ang),1-dGtot,2-dGvac,3-dGele,4-dGdis,5-dGcav,6-dGvdw(kT)
13.5000 0.0000 0.0000 0.0000 0.0000 0.0000 0.0000
13.4000 0.0068 -0.0006 0.0015 0.0074 -0.0015 0.0059
13.3000 0.0088 -0.0012 0.0009 0.0154 -0.0062 0.0092
13.2000 0.0154 -0.0016 0.0006 0.0223 -0.0058 0.0165
13.1000 0.0161 -0.0019 0.0008 0.0300 -0.0128 0.0173
13.0000 0.0107 -0.0026 -0.0007 0.0371 -0.0231 0.0140
12.9000 0.0118 -0.0034 -0.0013 0.0443 -0.0277 0.0166
12.8000 0.0136 -0.0047 -0.0022 0.0517 -0.0311 0.0206
12.7000 0.0187 -0.0061 -0.0034 0.0607 -0.0324 0.0283
12.6000 0.0154 -0.0087 -0.0047 0.0689 -0.0401 0.0287
12.5000 0.0095 -0.0109 -0.0055 0.0785 -0.0525 0.0260
12.4000 0.0043 -0.0126 -0.0068 0.0882 -0.0646 0.0236
12.3000 0.0047 -0.0147 -0.0080 0.0960 -0.0686 0.0273
12.2000 0.0040 -0.0180 -0.0100 0.1032 -0.0712 0.0320
12.1000 -0.0096 -0.0229 -0.0106 0.1129 -0.0890 0.0239
12.0000 -0.0182 -0.0269 -0.0130 0.1223 -0.1006 0.0217
11.9000 -0.0315 -0.0307 -0.0141 0.1318 -0.1186 0.0132
11.8000 -0.0423 -0.0333 -0.0151 0.1407 -0.1347 0.0060
11.7000 -0.0576 -0.0363 -0.0160 0.1493 -0.1546 -0.0053
11.6000 -0.0714 -0.0386 -0.0179 0.1584 -0.1733 -0.0149
11.5000 -0.0916 -0.0399 -0.0188 0.1663 -0.1992 -0.0329
11.4000 -0.1063 -0.0409 -0.0196 0.1746 -0.2204 -0.0459
11.3000 -0.1191 -0.0416 -0.0213 0.1813 -0.2377 -0.0564
11.2000 -0.1317 -0.0419 -0.0217 0.1880 -0.2561 -0.0682
11.1000 -0.1329 -0.0415 -0.0225 0.1939 -0.2628 -0.0689
11.0000 -0.1477 -0.0415 -0.0230 0.2022 -0.2854 -0.0832
10.9000 -0.1505 -0.0417 -0.0229 0.2078 -0.2938 -0.0860
10.8000 -0.1428 -0.0425 -0.0221 0.2126 -0.2909 -0.0783
10.7000 -0.1425 -0.0438 -0.0209 0.2180 -0.2958 -0.0778
10.6000 -0.1348 -0.0456 -0.0193 0.2234 -0.2934 -0.0700
10.5000 -0.1293 -0.0470 -0.0164 0.2280 -0.2940 -0.0660
10.4000 -0.1064 -0.0486 -0.0145 0.2325 -0.2758 -0.0433
10.3000 -0.0760 -0.0505 -0.0121 0.2382 -0.2517 -0.0135
10.2000 -0.0499 -0.0524 -0.0109 0.2458 -0.2325 0.0133
10.1000 -0.0143 -0.0543 -0.0085 0.2536 -0.2051 0.0484
10.0000 0.0267 -0.0563 -0.0073 0.2623 -0.1721 0.0902
9.9000 0.0700 -0.0584 -0.0076 0.2714 -0.1356 0.1359
9.8000 0.1139 -0.0608 -0.0079 0.2828 -0.1002 0.1826
9.7000 0.1549 -0.0634 -0.0091 0.2962 -0.0689 0.2273
9.6000 0.1904 -0.0663 -0.0117 0.3112 -0.0430 0.2682
9.5000 0.2093 -0.0694 -0.0142 0.3282 -0.0353 0.2929
9.4000 0.2202 -0.0732 -0.0172 0.3472 -0.0367 0.3105
9.3000 0.2224 -0.0774 -0.0214 0.3658 -0.0447 0.3212
9.2000 0.2174 -0.0822 -0.0253 0.3852 -0.0604 0.3248
9.1000 0.1941 -0.0874 -0.0299 0.4058 -0.0945 0.3113
9.0000 0.1669 -0.0932 -0.0355 0.4266 -0.1310 0.2956
8.9000 0.1185 -0.0997 -0.0415 0.4470 -0.1874 0.2597
8.8000 0.0621 -0.1067 -0.0480 0.4664 -0.2497 0.2167
8.7000 0.0078 -0.1144 -0.0542 0.4848 -0.3083 0.1765
8.6000 -0.0659 -0.1228 -0.0605 0.5022 -0.3848 0.1174
8.5000 -0.1385 -0.1318 -0.0670 0.5172 -0.4570 0.0602
8.4000 -0.2139 -0.1416 -0.0719 0.5311 -0.5316 -0.0005
8.3000 -0.3012 -0.1523 -0.0762 0.5441 -0.6169 -0.0728
8.2000 -0.3909 -0.1639 -0.0796 0.5563 -0.7037 -0.1474
8.1000 -0.4655 -0.1764 -0.0830 0.5653 -0.7714 -0.2060
8.0000 -0.5355 -0.1901 -0.0847 0.5725 -0.8333 -0.2608
7.9000 -0.6023 -0.2051 -0.0849 0.5790 -0.8914 -0.3124
7.8000 -0.6551 -0.2214 -0.0846 0.5866 -0.9359 -0.3493
7.7000 -0.6864 -0.2392 -0.0829 0.5943 -0.9587 -0.3645
7.6000 -0.6913 -0.2586 -0.0819 0.6010 -0.9520 -0.3509
7.5000 -0.6654 -0.2799 -0.0790 0.6088 -0.9155 -0.3067
7.4000 -0.5958 -0.3033 -0.0753 0.6175 -0.8350 -0.2175
7.3000 -0.4747 -0.3289 -0.0715 0.6271 -0.7017 -0.0747
7.2000 -0.3011 -0.3570 -0.0644 0.6394 -0.5195 0.1199
7.1000 -0.0844 -0.3878 -0.0583 0.6583 -0.2968 0.3615
7.0000 0.1826 -0.4218 -0.0518 0.6816 -0.0257 0.6558
6.9000 0.4504 -0.4592 -0.0442 0.7142 0.2393 0.9535
6.8000 0.7123 -0.5004 -0.0369 0.7572 0.4921 1.2493
6.7000 0.8994 -0.5459 -0.0317 0.8166 0.6600 1.4766
6.6000 1.0227 -0.5962 -0.0285 0.8885 0.7584 1.6469
6.5000 1.0890 -0.6518 -0.0289 0.9725 0.7966 1.7692
6.4000 1.1160 -0.7133 -0.0302 1.0675 0.7914 1.8589
6.3000 1.1135 -0.7814 -0.0332 1.1695 0.7580 1.9275
6.2000 1.0854 -0.8569 -0.0390 1.2792 0.7017 1.9808
6.1000 1.0157 -0.9406 -0.0464 1.4000 0.6022 2.0022
6.0000 0.9400 -1.0334 -0.0547 1.5249 0.5026 2.0276
5.9000 0.8328 -1.1364 -0.0644 1.6565 0.3766 2.0331
5.8000 0.7014 -1.2505 -0.0738 1.7937 0.2314 2.0251
5.7000 0.5480 -1.3769 -0.0829 1.9364 0.0708 2.0072
5.6000 0.3564 -1.5166 -0.0922 2.0859 -0.1214 1.9645
5.5000 0.1446 -1.6707 -0.1022 2.2404 -0.3236 1.9168
5.4000 -0.1040 -1.8398 -0.1109 2.4024 -0.5563 1.8461
5.3000 -0.3781 -2.0244 -0.1195 2.5672 -0.8019 1.7653
5.2000 -0.6847 -2.2239 -0.1265 2.7370 -1.0717 1.6652
5.1000 -1.0090 -2.4365 -0.1335 2.9101 -1.3496 1.5605
5.0000 -1.3554 -2.6583 -0.1385 3.0879 -1.6470 1.4409
4.9000 -1.7188 -2.8816 -0.1437 3.2688 -1.9628 1.3060
4.8000 -2.0710 -3.0929 -0.1467 3.4527 -2.2846 1.1681
4.7000 -2.4065 -3.2691 -0.1483 3.6407 -2.6301 1.0106
4.6000 -2.6738 -3.3715 -0.1487 3.8296 -2.9835 0.8461
4.5000 -2.8133 -3.3355 -0.1475 4.0211 -3.3518 0.6693
4.4000 -2.7166 -3.0535 -0.1460 4.2152 -3.7325 0.4826
4.3000 -2.2017 -2.3453 -0.1420 4.4101 -4.1247 0.2854
4.2000 -0.9624 -0.9059 -0.1378 4.6066 -4.5256 0.0811
4.1000 1.5202 1.7882 -0.1323 4.8029 -4.9387 -0.1358
4.0000 6.1635 6.6516 -0.1266 5.0002 -5.3618 -0.3615
3.9000 14.5974 15.3175 -0.1201 5.1989 -5.7991 -0.6002
3.8000 29.8131 30.7763 -0.1122 5.3973 -6.2484 -0.8512
3.7000 57.4495 58.6658 -0.1043 5.5947 -6.7067 -1.1120
3.6000 108.4937 109.9708 -0.0959 5.7903 -7.1718 -1.3815
3.5000 205.1600 206.9163 -0.0875 5.9863 -7.6553 -1.6690
3.4000 394.3528 396.3991 -0.0784 6.1812 -8.1494 -1.9682
3.3000 779.7937 782.1377 -0.0695 6.3729 -8.6481 -2.2752
3.2000 1603.1562 1605.8101 -0.0596 6.5612 -9.1575 -2.5963
3.1000 3461.0313 3464.0040 -0.0506 6.7462 -9.6726 -2.9264
3.0000 7922.6324 7925.9336 -0.0413 6.9279 -10.1976 -3.2697
2.9000 19413.1435 19416.7845 -0.0344 7.1052 -10.7279 -3.6228
2.8000 51399.7695 51403.7373 -0.0265 7.2792 -11.2771 -3.9979
2.7000 148421.9382 148426.2749 -0.0198 7.4482 -11.8295 -4.3813
2.6000 471718.2480 471722.6236 -0.0152 7.6108 -12.3837 -4.7729
2.5000 1664443.4447 1664447.4210 -0.0103 7.7673 -12.9481 -5.1808
2.4000 6564159.1185 6564164.2963 -0.0061 7.9166 -13.5153 -5.5987
2.3000 28954604.5941 28954565.7547 -0.0036 8.0577 -14.0851 -6.0275
2.2000 140726471.9476 140726273.3751 -0.0007 8.1900 -14.6536 -6.4636
2.1000 715761938.9562 715760972.1332 0.0012 8.3147 -15.2313 -6.9166
2.0000 3361866595.9882 3361863733.5048 0.0033 8.4299 -15.8058 -7.3759
1.9000 11487359506.9005 11487339836.1964 0.0053 8.5364 -16.3767 -7.8403
1.8000 20713425852.5409 20713399622.6348 0.0073 8.6335 -16.9291 -8.2956
1.7000 15974997555.9787 15974986084.8229 0.0108 8.7215 -17.4770 -8.7555
1.6000 5811368274.4240 5811358032.7647 0.0152 8.8008 -18.0085 -9.2078
1.5000 1359973343.3584 1359970889.9828 0.0207 8.8708 -18.5192 -9.6484
1.4000 280968931.4897 280968338.0902 0.0284 8.9329 -18.9983 -10.0654
1.3000 86866195.4516 86866079.4815 0.0360 8.9875 -19.4388 -10.4513
